'Time and date','FP1-F7','F7-T7','T7-P7','P7-O1','-','FP1-F3','F3-C3','C3-P3','P3-O1','-','FZ-CZ','CZ-PZ','-','FP2-F4','F4-C4','C4-P4','P4-O2','-','FP2-F8','F8-T8','T8-P8','P8-O2','-','P7-T7','T7-FT9','FT9-FT10','FT10-T8','T8-P8'
'hh:mm:ss.mmm dd/mm/yyyy','uV','uV','uV','uV','uV','uV','uV','uV','uV','uV','uV','uV','uV','uV','uV','uV','uV','uV','uV','uV','uV','uV','uV','uV','uV','uV','uV','uV'
'[17:56:45.000 10/08/2055]',-107.057,14.457,-8.987,28.523,0.000,-91.038,-20.317,10.940,27.350,0.000,-103.150,69.548,0.000,-5.470,10.940,-16.801,-57.827,0.000,-84.786,125.031,-145.348,35.946,0.000,8.987,28.523,-7.424,17.582,-145.348
'[17:56:45.004 10/08/2055]',0.000,0.000,0.000,0.000,0.000,0.000,0.000,0.000,0.000,0.000,0.000,0.000,0.000,0.000,0.000,0.000,0.000,0.000,0.000,0.000,0.000,0.000,0.000,0.000,0.000,0.000,0.000,0.000
'[17:56:45.008 10/08/2055]',0.000,0.000,0.000,0.000,0.000,0.000,0.000,0.000,0.000,0.000,0.000,0.000,0.000,0.000,0.000,0.000,0.000,0.000,-0.391,0.000,0.781,0.000,0.000,0.000,0.000,0.000,0.000,0.781
'[17:56:45.012 10/08/2055]',0.391,0.000,0.000,0.000,0.000,0.391,0.391,0.000,0.000,0.000,0.391,0.000,0.000,0.000,0.000,0.000,0.391,0.000,-1.172,0.391,0.781,0.000,0.000,0.000,0.000,0.000,0.000,0.781
'[17:56:45.016 10/08/2055]',0.000,0.000,-0.391,0.000,0.000,0.781,-0.781,0.000,0.000,0.000,-0.391,0.000,0.000,0.000,-0.391,0.000,-0.391,0.000,2.735,1.172,-8.205,1.954,0.000,0.391,0.391,0.781,1.954,-8.205
'[17:56:45.020 10/08/2055]',-1.563,-0.781,-1.172,0.000,0.000,-2.735,-1.563,0.000,0.000,0.000,-1.954,0.000,0.000,0.000,0.391,0.000,-2.344,0.000,6.642,-3.516,-3.907,-0.391,0.000,1.172,1.172,0.000,0.000,-3.907
'[17:56:45.023 10/08/2055]',-4.689,-0.391,0.391,0.000,0.000,-5.470,0.391,0.781,0.000,0.000,-0.391,0.000,0.000,0.000,3.126,-0.391,-2.344,0.000,-3.126,-3.126,13.284,-6.252,0.000,-0.391,-0.391,-1.563,-2.735,13.284
'[17:56:45.027 10/08/2055]',-2.344,3.516,1.172,0.391,0.000,-0.391,0.781,2.344,0.391,0.000,2.735,0.000,0.000,0.000,2.344,-1.563,0.781,0.000,-11.722,0.781,17.192,-4.689,0.000,-1.172,-3.126,-0.781,-3.907,17.192
'[17:56:45.031 10/08/2055]',3.126,3.126,0.781,0.000,0.000,5.079,0.000,1.172,1.172,0.000,1.563,0.000,0.000,0.391,-1.172,0.000,1.954,0.000,0.781,1.172,-3.907,2.735,0.000,-0.781,-0.781,1.172,0.000,-3.907
'[17:56:45.035 10/08/2055]',2.735,-1.563,0.781,-0.391,0.000,0.781,0.391,-1.172,0.781,0.000,-1.954,0.000,0.000,4.298,0.000,2.344,-1.172,0.000,15.238,-5.079,-5.470,1.172,0.000,-0.781,2.735,0.781,-0.391,-5.470
'[17:56:45.039 10/08/2055]',-4.689,-0.781,-0.391,0.000,0.000,-3.516,-1.563,-0.781,-0.391,0.000,-5.079,-0.781,0.000,1.563,5.079,-0.391,-9.377,0.000,13.284,-3.516,-11.331,-2.735,0.000,0.391,3.516,1.954,1.563,-11.331
'[17:56:45.043 10/08/2055]',-23.053,6.252,-11.331,0.391,0.000,-19.145,-15.629,5.861,0.781,0.000,-15.238,-4.689,0.000,-5.470,11.331,-5.470,-28.913,0.000,39.463,-17.973,-43.370,-7.424,0.000,11.331,5.861,5.470,5.470,-43.370
'[17:56:45.047 10/08/2055]',-47.668,7.814,-3.126,2.344,0.000,-56.264,-7.424,16.410,5.470,0.000,-12.503,-3.516,0.000,3.516,30.476,-3.126,-33.993,0.000,26.960,-60.171,84.396,-54.701,0.000,3.126,-1.172,-9.377,-32.821,84.396
'[17:56:45.051 10/08/2055]',-69.939,27.741,15.238,4.298,0.000,-58.217,1.563,25.788,8.205,0.000,-0.781,-8.987,0.000,19.536,52.357,-22.271,-40.244,0.000,-14.847,-26.178,123.077,-72.283,0.000,-15.238,-12.503,-2.344,-33.211,123.077
'[17:56:45.055 10/08/2055]',-39.853,56.654,8.987,11.331,0.000,-23.053,-0.781,39.853,21.490,0.000,7.424,-8.205,0.000,31.258,54.310,-10.549,-33.211,0.000,0.781,-76.190,203.565,-85.568,0.000,-8.987,-24.225,-9.377,-82.051,203.565
'[17:56:45.059 10/08/2055]',-10.940,57.045,39.072,0.391,0.000,7.033,28.913,32.039,17.192,0.000,13.675,-4.689,0.000,32.039,58.999,4.298,-30.085,0.000,11.331,-69.939,226.618,-101.587,0.000,-39.072,-17.973,0.391,-77.363,226.618
'[17:56:45.063 10/08/2055]',6.252,74.628,41.416,-0.781,0.000,41.807,30.085,31.258,17.973,0.000,16.020,-3.516,0.000,50.012,62.125,12.503,-31.648,0.000,59.389,-84.396,204.737,-85.177,0.000,-41.416,-16.020,22.271,-100.415,204.737
'[17:56:45.066 10/08/2055]',28.132,100.024,31.648,-6.642,0.000,67.595,35.556,33.602,14.457,0.000,16.410,0.781,0.000,22.662,54.701,26.960,-31.258,0.000,68.767,-80.488,159.023,-73.455,0.000,-31.648,-23.053,39.853,-93.382,159.023
'[17:56:45.070 10/08/2055]',13.675,120.733,23.053,-13.675,0.000,44.151,53.138,31.648,13.284,0.000,18.755,3.516,0.000,42.979,51.966,23.443,-23.053,0.000,119.560,-44.151,79.707,-58.217,0.000,-23.053,-36.337,69.548,-59.389,79.707
'[17:56:45.074 10/08/2055]',7.033,145.348,20.708,-6.252,0.000,50.794,54.701,35.946,23.443,0.000,18.364,4.298,0.000,114.481,58.217,5.470,-16.801,0.000,172.308,-35.165,73.455,-47.277,0.000,-20.708,-47.668,92.601,-76.581,73.455
'[17:56:45.078 10/08/2055]',35.165,168.791,6.252,-8.205,0.000,87.912,54.701,35.946,21.099,0.000,14.847,1.954,0.000,141.441,55.482,-5.861,-13.675,0.000,162.930,-2.735,73.455,-56.654,0.000,-6.252,-58.999,92.991,-62.906,73.455
'[17:56:45.082 10/08/2055]',74.237,172.308,11.722,-6.252,0.000,133.236,52.357,34.774,29.304,0.000,14.066,5.861,0.000,124.249,38.681,16.020,-1.172,0.000,196.142,-8.987,71.111,-79.316,0.000,-11.722,-58.999,114.090,-51.184,71.111
'[17:56:45.086 10/08/2055]',124.640,164.884,39.463,-4.689,0.000,212.161,41.416,33.993,34.383,0.000,14.847,7.424,0.000,127.766,52.357,9.377,1.172,0.000,212.943,-50.012,112.137,-82.833,0.000,-39.463,-42.979,127.375,-91.429,112.137
'[17:56:45.090 10/08/2055]',137.924,163.321,44.151,-15.238,0.000,227.790,39.072,34.774,26.178,0.000,13.284,7.814,0.000,89.475,44.151,30.476,2.735,0.000,214.505,-49.231,85.958,-82.051,0.000,-44.151,-34.383,140.269,-87.912,85.958
'[17:56:45.094 10/08/2055]',125.812,182.466,37.900,-6.252,0.000,223.883,46.886,32.039,36.337,0.000,24.615,5.079,0.000,89.866,47.668,23.053,25.397,0.000,244.591,-42.589,37.118,-51.184,0.000,-37.900,-47.668,166.447,-71.502,37.118
'[17:56:45.098 10/08/2055]',117.998,210.598,23.053,-8.596,0.000,226.618,54.701,27.350,32.430,0.000,29.304,-4.298,0.000,159.805,69.158,-15.629,19.536,0.000,258.266,-77.363,97.680,-44.151,0.000,-23.053,-59.780,171.917,-144.957,97.680
'[17:56:45.102 10/08/2055]',97.680,225.836,14.847,-7.033,0.000,216.068,55.092,24.225,33.993,0.000,25.006,-11.722,0.000,224.664,51.184,-15.238,28.523,0.000,321.172,-76.581,79.316,-33.211,0.000,-14.847,-59.780,174.652,-144.176,79.316
'[17:56:45.105 10/08/2055]',73.065,229.744,15.629,-14.066,0.000,201.612,48.840,18.364,33.602,0.000,22.662,-19.145,0.000,199.267,32.430,-19.145,32.821,0.000,300.073,-45.714,25.006,-32.039,0.000,-15.629,-61.734,180.513,-101.978,25.006
'[17:56:45.109 10/08/2055]',93.773,219.585,29.304,-0.781,0.000,228.181,41.807,19.145,50.403,0.000,20.708,-14.847,0.000,180.122,33.993,-16.801,46.886,0.000,281.709,-31.648,30.085,-33.993,0.000,-29.304,-57.827,183.639,-95.336,30.085
'[17:56:45.113 10/08/2055]',117.216,226.618,40.635,-7.033,0.000,256.313,42.198,23.053,53.529,0.000,15.238,-10.549,0.000,177.387,24.615,-5.079,51.184,0.000,303.980,-41.416,23.834,-37.118,0.000,-40.635,-57.436,180.513,-88.694,23.834
'[17:56:45.117 10/08/2055]',128.156,226.227,35.165,0.000,0.000,268.034,43.370,20.317,57.827,0.000,12.503,-8.596,0.000,131.673,30.085,-8.987,65.250,0.000,289.524,-8.205,-58.217,-3.907,0.000,-35.165,-61.343,209.035,-53.138,-58.217
'[17:56:45.121 10/08/2055]',162.540,237.167,20.708,7.033,0.000,295.775,49.621,21.490,58.999,0.000,13.284,-7.033,0.000,147.692,46.886,-26.178,61.343,0.000,277.802,-80.879,30.476,2.735,0.000,-20.708,-72.674,212.161,-149.255,30.476
'[17:56:45.125 10/08/2055]',146.129,235.604,17.973,11.331,0.000,281.709,46.496,21.880,59.389,0.000,8.987,-3.907,0.000,192.234,46.105,-18.364,50.012,0.000,304.371,-114.481,93.382,-13.284,0.000,-17.973,-74.237,213.724,-188.718,93.382
'[17:56:45.129 10/08/2055]',108.620,207.082,35.556,17.192,0.000,250.452,35.946,20.317,60.952,0.000,4.298,-1.954,0.000,185.592,47.277,-15.629,42.979,0.000,309.841,-101.978,49.231,2.735,0.000,-35.556,-62.125,230.916,-165.275,49.231
'[17:56:45.133 10/08/2055]',51.966,189.499,46.105,14.457,0.000,189.499,35.165,20.708,55.092,0.000,5.861,6.642,0.000,159.414,41.026,0.781,33.993,0.000,288.742,-90.647,59.389,-19.927,0.000,-46.105,-50.794,214.505,-134.017,59.389
'[17:56:45.137 10/08/2055]',16.020,187.546,62.906,16.801,0.000,168.400,31.648,21.490,60.562,0.000,10.159,16.410,0.000,173.089,26.178,24.615,41.416,0.000,316.484,-84.396,79.316,-43.370,0.000,-62.906,-45.324,203.175,-103.541,79.316
'[17:56:45.141 10/08/2055]',20.317,210.989,52.747,14.847,0.000,166.447,46.886,25.397,58.999,0.000,7.424,17.973,0.000,132.063,40.635,11.722,41.416,0.000,299.683,-108.620,63.297,-25.788,0.000,-52.747,-69.939,220.366,-115.263,63.297
'[17:56:45.145 10/08/2055]',21.099,224.274,38.681,23.443,0.000,164.493,48.840,29.304,64.078,0.000,10.549,22.271,0.000,97.680,32.430,18.364,45.324,0.000,273.504,-121.905,64.469,-19.145,0.000,-38.681,-82.051,234.432,-135.189,64.469
'[17:56:45.148 10/08/2055]',31.258,223.101,41.807,31.648,0.000,182.857,40.635,32.430,70.720,0.000,13.284,16.801,0.000,97.680,54.701,-8.987,42.198,0.000,219.194,-123.858,110.574,-18.755,0.000,-41.807,-93.773,231.306,-162.149,110.574
'[17:56:45.152 10/08/2055]',31.258,248.107,16.410,33.993,0.000,189.109,32.430,37.509,69.939,0.000,7.424,9.377,0.000,111.746,45.324,-17.192,35.165,0.000,231.306,-109.402,66.032,-10.940,0.000,-16.410,-129.328,239.121,-129.719,66.032
'[17:56:45.156 10/08/2055]',6.252,211.770,47.277,33.211,0.000,174.261,23.443,35.946,64.469,0.000,7.814,5.470,0.000,111.746,49.231,-13.675,28.132,0.000,228.962,-108.620,82.051,-24.615,0.000,-47.277,-103.150,240.293,-126.984,82.051
'[17:56:45.160 10/08/2055]',-39.853,184.029,72.283,26.178,0.000,142.222,14.847,32.821,51.184,0.000,9.377,0.781,0.000,130.501,32.039,-17.192,23.443,0.000,237.167,-97.289,52.357,-21.490,0.000,-72.283,-76.190,232.088,-99.243,52.357
'[17:56:45.164 10/08/2055]',-31.258,189.499,66.032,23.053,0.000,136.752,30.085,35.556,43.370,0.000,8.987,-0.781,0.000,96.508,29.304,-14.457,25.006,0.000,228.571,-94.164,16.410,-11.331,0.000,-66.032,-89.084,253.187,-89.084,16.410
'[17:56:45.168 10/08/2055]',-51.966,171.917,81.270,24.615,0.000,99.634,42.979,41.416,40.244,0.000,12.503,1.172,0.000,58.217,34.383,-14.847,21.880,0.000,197.314,-108.230,26.178,-13.284,0.000,-81.270,-82.833,273.114,-107.057,26.178
'[17:56:45.172 10/08/2055]',-54.701,155.507,80.879,26.960,0.000,88.694,43.370,42.198,33.211,0.000,19.145,2.344,0.000,82.051,26.569,-23.443,19.927,0.000,206.691,-102.759,3.126,0.781,0.000,-80.879,-76.972,273.895,-103.150,3.126
'[17:56:45.176 10/08/2055]',-58.999,163.712,80.098,28.523,0.000,82.051,47.668,48.449,33.993,0.000,14.847,3.516,0.000,89.866,22.662,-24.225,17.192,0.000,207.082,-94.945,-5.861,1.563,0.000,-80.098,-97.289,272.332,-82.051,-5.861
'[17:56:45.180 10/08/2055]',-83.223,152.772,89.084,30.867,0.000,62.906,41.416,48.059,34.383,0.000,13.675,6.642,0.000,94.554,20.708,-17.582,11.331,0.000,200.830,-97.680,25.006,-16.410,0.000,-89.084,-99.243,263.346,-73.846,25.006
'[17:56:45.184 10/08/2055]',-97.289,133.626,90.256,25.397,0.000,56.264,26.569,41.026,26.569,0.000,7.814,5.079,0.000,73.065,15.238,-25.006,10.940,0.000,181.685,-114.872,14.457,-4.298,0.000,-90.256,-84.005,254.359,-83.223,14.457
'[17:56:45.188 10/08/2055]',-108.230,129.719,80.879,21.880,0.000,48.059,19.536,35.165,19.927,0.000,1.954,1.172,0.000,2.735,21.880,-32.039,10.940,0.000,123.468,-107.057,-10.549,-0.391,0.000,-80.879,-84.005,249.670,-65.641,-10.549
'[17:56:45.191 10/08/2055]',-134.799,128.547,69.548,19.145,0.000,14.066,14.457,34.383,17.582,0.000,-0.391,0.391,0.000,-53.138,24.615,-21.099,11.722,0.000,85.177,-122.295,23.053,-21.880,0.000,-69.548,-90.256,263.346,-87.131,23.053
'[17:56:45.195 10/08/2055]',-135.580,116.825,64.078,11.331,0.000,-5.470,19.145,28.132,14.457,0.000,-3.907,-3.126,0.000,-37.509,12.112,-24.615,14.847,0.000,103.150,-122.295,0.781,-15.629,0.000,-64.078,-82.833,263.346,-85.958,0.781
'[17:56:45.199 10/08/2055]',-141.441,109.402,58.217,9.377,0.000,-20.317,15.629,24.225,15.238,0.000,-8.987,-5.861,0.000,-6.642,-3.126,-24.225,17.973,0.000,124.249,-134.799,12.112,-17.192,0.000,-58.217,-85.958,261.001,-95.726,12.112
'[17:56:45.203 10/08/2055]',-161.758,106.667,54.310,2.735,0.000,-45.714,11.331,21.490,13.284,0.000,-16.020,-4.689,0.000,28.523,-25.006,-8.987,14.066,0.000,144.567,-121.905,16.801,-30.867,0.000,-54.310,-94.945,253.968,-75.409,16.801
'[17:56:45.207 10/08/2055]',-172.698,85.177,56.264,8.596,0.000,-62.125,0.000,16.020,23.053,0.000,-22.271,-4.298,0.000,5.861,-23.834,-22.662,20.317,0.000,111.746,-99.634,-18.755,-12.503,0.000,-56.264,-85.177,244.982,-50.794,-18.755
'[17:56:45.211 10/08/2055]',-195.360,77.753,41.026,5.079,0.000,-79.707,-14.847,9.768,13.675,0.000,-26.178,-7.424,0.000,-51.966,-22.271,-27.741,18.364,0.000,56.264,-100.806,-29.695,-8.987,0.000,-41.026,-87.131,235.604,-43.370,-29.695
'[17:56:45.215 10/08/2055]',-189.890,71.111,41.416,3.907,0.000,-72.283,-21.880,10.159,11.331,0.000,-21.099,-8.596,0.000,-109.792,-7.814,-28.523,19.927,0.000,15.238,-52.747,-92.601,3.516,0.000,-41.416,-87.521,237.167,8.205,-92.601
'[17:56:45.219 10/08/2055]',-186.764,58.608,35.165,9.377,0.000,-82.442,-23.834,9.377,13.284,0.000,-21.099,-10.940,0.000,-159.805,4.298,-26.178,16.020,0.000,-7.033,-134.408,-31.648,9.768,0.000,-35.165,-82.442,228.181,-55.092,-31.648
'[17:56:45.223 10/08/2055]',-164.884,59.780,30.085,10.159,0.000,-55.873,-26.569,11.331,7.424,0.000,-19.536,-13.284,0.000,-102.369,0.000,-12.894,2.735,0.000,22.271,-205.910,95.726,-25.006,0.000,-30.085,-85.958,223.492,-140.269,95.726
'[17:56:45.227 10/08/2055]',-173.480,48.059,26.960,13.284,0.000,-64.469,-36.728,11.331,5.861,0.000,-24.225,-16.410,0.000,-39.072,-15.629,-11.722,3.516,0.000,56.654,-176.606,79.707,-22.662,0.000,-26.960,-86.740,214.505,-117.216,79.707
'[17:56:45.230 10/08/2055]',-196.532,42.979,24.225,13.675,0.000,-89.475,-38.291,9.768,3.907,0.000,-30.476,-18.364,0.000,-14.847,-31.648,-11.331,1.563,0.000,60.562,-187.546,96.899,-26.569,0.000,-24.225,-90.647,207.473,-126.203,96.899
'[17:56:45.234 10/08/2055]',-218.413,39.853,17.192,16.410,0.000,-111.355,-40.635,7.033,1.563,0.000,-34.383,-21.490,0.000,0.781,-50.794,-15.238,5.079,0.000,50.403,-151.600,61.343,-19.927,0.000,-17.192,-92.991,203.565,-102.369,61.343
'[17:56:45.238 10/08/2055]',-247.326,29.304,18.364,14.457,0.000,-150.037,-36.337,5.861,-2.344,0.000,-32.821,-23.443,0.000,-52.357,-62.125,-17.582,10.549,0.000,5.079,-103.541,-19.927,-1.954,0.000,-18.364,-89.866,203.565,-48.449,-19.927
'[17:56:45.242 10/08/2055]',-239.902,23.443,16.801,14.847,0.000,-156.288,-31.648,6.642,-1.954,0.000,-30.867,-22.271,0.000,-126.203,-46.105,-18.755,9.377,0.000,-39.853,-134.799,-8.596,1.954,0.000,-16.801,-87.912,195.360,-65.250,-8.596
'[17:56:45.246 10/08/2055]',-170.354,7.033,18.755,19.536,0.000,-90.647,-38.291,7.814,-1.954,0.000,-33.993,-23.834,0.000,-145.739,-40.635,-8.987,3.126,0.000,-56.654,-156.679,37.900,-14.457,0.000,-18.755,-73.846,177.778,-83.223,37.900
'[17:56:45.250 10/08/2055]',-172.308,-5.470,22.271,22.662,0.000,-84.786,-50.012,6.642,-4.298,0.000,-37.900,-25.788,0.000,-122.686,-39.853,-11.722,3.907,0.000,-41.416,-134.799,18.364,-11.331,0.000,-22.271,-65.641,178.559,-69.939,18.364
'[17:56:45.254 10/08/2055]',-152.772,-14.066,27.741,18.364,0.000,-63.687,-57.436,6.252,-5.470,0.000,-39.463,-28.523,0.000,-96.508,-34.774,-28.132,8.205,0.000,-24.615,-114.481,-19.927,8.987,0.000,-27.741,-63.687,162.930,-44.151,-19.927
'[17:56:45.258 10/08/2055]',-144.957,-18.755,35.946,23.834,0.000,-53.529,-60.171,8.987,1.172,0.000,-45.324,-28.913,0.000,-75.409,-39.853,-30.476,18.755,0.000,-14.066,-73.455,-58.608,20.317,0.000,-35.946,-61.734,157.070,-6.252,-58.608
'[17:56:45.262 10/08/2055]',-209.035,-23.443,35.946,22.271,0.000,-127.766,-57.827,8.987,2.735,0.000,-41.416,-26.960,0.000,-89.475,-49.621,-32.821,30.476,0.000,-31.258,-101.197,-57.436,49.231,0.000,-35.946,-58.217,146.129,-33.993,-57.436
'[17:56:45.266 10/08/2055]',-229.744,-21.880,37.509,15.238,0.000,-175.824,-40.244,11.331,6.642,0.000,-34.774,-22.271,0.000,-133.626,-39.853,-24.225,32.821,0.000,-54.701,-110.183,-44.542,45.714,0.000,-37.509,-57.827,136.752,-40.635,-44.542
'[17:56:45.270 10/08/2055]',-201.221,-29.304,38.681,17.192,0.000,-159.805,-39.072,11.722,13.284,0.000,-27.741,-15.629,0.000,-163.321,-34.383,-0.391,32.039,0.000,-85.958,-151.990,67.595,5.470,0.000,-38.681,-48.449,113.309,-81.661,67.595
'[17:56:45.273 10/08/2055]',-178.168,-36.337,34.774,15.238,0.000,-146.520,-40.635,9.768,13.284,0.000,-26.960,-11.722,0.000,-127.766,-35.556,8.596,28.523,0.000,-58.999,-178.559,120.733,-7.424,0.000,-34.774,-39.072,107.448,-123.077,120.733
'[17:56:45.277 10/08/2055]',-150.427,-34.774,26.178,13.675,0.000,-121.514,-45.324,5.079,16.410,0.000,-26.960,-10.159,0.000,-86.349,-40.244,8.596,28.132,0.000,-22.271,-141.832,82.442,-7.033,0.000,-26.178,-39.072,105.885,-90.647,82.442
'[17:56:45.281 10/08/2055]',-124.640,-37.900,21.490,17.582,0.000,-85.958,-63.297,5.470,20.317,0.000,-28.913,-7.424,0.000,-71.502,-41.026,3.516,24.615,0.000,-19.145,-109.792,51.575,-5.470,0.000,-21.490,-37.118,96.508,-55.482,51.575
'[17:56:45.285 10/08/2055]',-150.037,-46.496,13.675,21.490,0.000,-121.514,-67.204,3.126,25.397,0.000,-32.821,-2.344,0.000,-85.568,-42.198,2.735,25.788,0.000,-32.430,-112.137,39.072,7.424,0.000,-13.675,-31.258,91.429,-58.999,39.072
'[17:56:45.289 10/08/2055]',-179.731,-49.621,6.252,21.099,0.000,-164.884,-65.250,0.000,28.523,0.000,-35.556,-1.954,0.000,-135.971,-41.026,0.000,21.880,0.000,-71.893,-84.786,-17.973,20.708,0.000,-6.252,-29.695,103.932,-40.635,-17.973
'[17:56:45.293 10/08/2055]',-176.996,-57.045,5.861,19.145,0.000,-164.103,-70.720,-1.563,28.132,0.000,-30.476,-1.954,0.000,-157.070,-33.211,6.252,15.238,0.000,-91.429,-100.415,14.066,10.549,0.000,-5.861,-23.443,92.991,-53.529,14.066
'[17:56:45.297 10/08/2055]',-156.288,-71.893,10.159,20.708,0.000,-147.302,-71.893,-5.861,28.913,0.000,-31.258,-3.907,0.000,-146.911,-33.993,17.192,11.722,0.000,-67.985,-127.766,49.231,-3.907,0.000,-10.159,-5.079,92.601,-81.270,49.231
'[17:56:45.301 10/08/2055]',-119.560,-73.065,14.066,11.331,0.000,-109.792,-69.548,-10.159,23.053,0.000,-32.039,-12.894,0.000,-105.495,-47.277,16.410,8.596,0.000,-49.231,-101.587,33.602,-8.596,0.000,-14.066,-0.391,87.521,-62.515,33.602
'[17:56:45.305 10/08/2055]',-112.137,-73.455,13.284,8.596,0.000,-94.554,-77.753,-12.112,21.099,0.000,-28.913,-20.708,0.000,-69.939,-45.714,6.252,9.377,0.000,-15.238,-66.422,-8.205,-7.424,0.000,-13.284,-0.391,82.442,-19.536,-8.205
'[17:56:45.309 10/08/2055]',-124.640,-77.753,14.066,-1.563,0.000,-115.263,-75.800,-15.629,17.192,0.000,-30.867,-29.304,0.000,-71.893,-56.654,1.563,11.331,0.000,-14.847,-30.085,-60.952,-7.424,0.000,-14.066,3.126,78.926,16.410,-60.952
'[17:56:45.313 10/08/2055]',-146.911,-72.674,3.907,-10.549,0.000,-156.288,-61.734,-21.490,13.284,0.000,-26.569,-35.946,0.000,-96.508,-44.933,-15.238,5.079,0.000,-57.436,-66.032,-9.768,-16.410,0.000,-3.907,0.000,74.628,-32.430,-9.768
'[17:56:45.316 10/08/2055]',-173.089,-69.548,0.781,-14.847,0.000,-191.453,-52.357,-23.834,10.549,0.000,-15.629,-41.026,0.000,-126.984,-19.536,-18.364,0.000,0.000,-72.283,-61.734,-3.907,-25.788,0.000,-0.781,-0.781,71.893,-28.523,-3.907
'[17:56:45.320 10/08/2055]',-169.963,-64.469,-5.861,-12.503,0.000,-191.453,-46.886,-28.523,13.284,0.000,-5.079,-41.416,0.000,-144.567,-12.503,-14.066,-0.781,0.000,-83.223,-87.131,11.722,-13.675,0.000,5.861,2.344,51.575,-44.933,11.722
'[17:56:45.324 10/08/2055]',-127.375,-62.906,-9.768,-10.549,0.000,-152.381,-37.900,-32.430,10.940,0.000,-4.298,-45.324,0.000,-161.368,-7.033,-12.894,-8.205,0.000,-96.899,-101.587,30.476,-21.880,0.000,9.768,7.814,49.231,-61.734,30.476
'[17:56:45.328 10/08/2055]',-92.210,-56.654,-7.033,-15.238,0.000,-110.183,-36.728,-34.383,9.768,0.000,-4.298,-47.277,0.000,-119.560,-13.675,-10.159,-1.172,0.000,-59.780,-74.237,-0.391,-9.377,0.000,7.033,8.987,40.635,-33.993,-0.391
'[17:56:45.332 10/08/2055]',-67.985,-57.045,-5.079,-19.145,0.000,-82.051,-40.244,-38.291,10.549,0.000,-8.205,-53.529,0.000,-87.912,-29.304,-23.443,4.689,0.000,-34.383,-38.681,-81.661,19.145,0.000,5.079,7.424,39.853,0.000,-81.661
'[17:56:45.336 10/08/2055]',-72.283,-62.515,-10.159,-27.741,0.000,-93.773,-33.602,-42.589,-2.344,0.000,-8.596,-57.045,0.000,-96.899,-34.774,-23.443,-13.675,0.000,-56.264,-90.647,3.516,-24.615,0.000,10.159,8.596,30.476,-50.012,3.516
'[17:56:45.340 10/08/2055]',-85.568,-64.469,-1.954,-30.867,0.000,-98.852,-37.118,-39.463,-7.033,0.000,-2.735,-54.701,0.000,-81.661,-33.993,-16.020,-2.735,0.000,-51.184,-91.429,42.589,-34.383,0.000,1.954,6.252,22.271,-50.794,42.589
'[17:56:45.344 10/08/2055]',-82.051,-60.952,-4.298,-32.821,0.000,-93.773,-37.509,-37.509,-11.331,0.000,3.516,-55.482,0.000,-89.866,-35.946,-16.801,4.298,0.000,-45.714,-57.436,-23.834,-9.768,0.000,4.298,0.781,19.145,-12.894,-23.834
'[17:56:45.348 10/08/2055]',-79.707,-64.860,-1.172,-32.039,0.000,-94.554,-32.821,-32.821,-17.192,0.000,7.814,-54.701,0.000,-109.011,-37.900,-13.675,-3.516,0.000,-71.502,-66.813,-8.987,-16.410,0.000,1.172,1.172,0.391,-9.768,-8.987
'[17:56:45.352 10/08/2055]',-52.747,-67.985,5.470,-29.695,0.000,-65.250,-39.072,-25.397,-14.066,0.000,8.596,-50.012,0.000,-70.330,-44.933,-5.079,3.516,0.000,-34.383,-6.252,-69.158,-6.642,0.000,-5.470,3.516,10.549,34.383,-69.158
'[17:56:45.355 10/08/2055]',-39.463,-64.860,2.735,-29.304,0.000,-49.231,-49.621,-20.708,-10.940,0.000,0.781,-49.621,0.000,-49.231,-60.171,-10.159,5.470,0.000,-13.675,-30.085,-91.819,21.880,0.000,-2.735,3.907,19.145,0.391,-91.819
'[17:56:45.359 10/08/2055]',-63.297,-77.363,3.516,-25.006,0.000,-80.488,-52.747,-14.066,-12.894,0.000,2.344,-43.370,0.000,-32.821,-39.072,-16.020,-17.192,0.000,-21.880,-92.991,19.145,-9.768,0.000,-3.516,12.503,0.391,-64.860,19.145
'[17:56:45.363 10/08/2055]',-58.608,-84.396,5.861,-18.364,0.000,-89.084,-48.840,-8.596,-7.814,0.000,4.689,-32.430,0.000,-42.589,-35.556,-1.172,-18.364,0.000,-26.960,-121.123,80.098,-30.476,0.000,-5.861,19.927,0.000,-93.382,80.098
'[17:56:45.367 10/08/2055]',-73.846,-81.661,2.735,-17.192,0.000,-115.653,-42.589,-3.907,-7.033,0.000,7.424,-20.317,0.000,-55.873,-28.132,10.940,-13.284,0.000,-31.648,-119.170,96.117,-31.648,0.000,-2.735,20.317,-7.814,-92.601,96.117
'[17:56:45.371 10/08/2055]',-79.316,-80.098,8.596,-11.722,0.000,-134.017,-28.523,0.000,0.391,0.000,17.582,-10.159,0.000,-76.972,-21.099,17.192,-5.079,0.000,-50.794,-95.336,85.958,-23.834,0.000,-8.596,18.364,-21.490,-61.343,85.958
'[17:56:45.375 10/08/2055]',-56.264,-76.581,13.675,-10.549,0.000,-109.402,-25.397,0.781,4.689,0.000,16.020,-7.033,0.000,-88.694,-25.006,15.629,1.172,0.000,-52.747,-55.873,16.410,-3.516,0.000,-13.675,13.284,-10.940,-21.099,16.410
'[17:56:45.379 10/08/2055]',-67.595,-72.674,10.549,-3.126,0.000,-92.601,-47.668,-1.563,8.596,0.000,12.894,-8.987,0.000,-87.912,-40.635,15.238,14.066,0.000,-55.092,-14.066,-46.496,17.582,0.000,-10.549,11.331,3.907,7.814,-46.496
'[17:56:45.383 10/08/2055]',-52.747,-74.237,8.987,-1.563,0.000,-64.860,-57.045,-4.298,7.814,0.000,13.284,-12.112,0.000,-123.468,-42.979,5.079,22.271,0.000,-91.038,18.755,-104.322,37.900,0.000,-8.987,10.159,-2.344,52.747,-104.322
'[17:56:45.387 10/08/2055]',-35.946,-82.051,5.861,-1.563,0.000,-45.714,-61.343,-11.331,5.470,0.000,10.549,-21.880,0.000,-134.408,-43.761,-4.298,10.159,0.000,-92.601,3.126,-126.984,43.761,0.000,-5.861,16.410,1.563,41.026,-126.984
'[17:56:45.391 10/08/2055]',-58.217,-87.521,0.000,7.814,0.000,-67.595,-58.999,-17.582,6.642,0.000,8.596,-23.053,0.000,-128.156,-38.291,18.364,9.377,0.000,-89.866,-34.774,-10.159,-2.344,0.000,0.000,22.271,0.000,-3.516,-10.159
'[17:56:45.395 10/08/2055]',-76.972,-84.005,-7.033,4.689,0.000,-96.508,-50.403,-23.834,7.814,0.000,10.940,-27.350,0.000,-117.607,-36.337,24.615,2.735,0.000,-93.773,-53.529,33.211,-11.722,0.000,7.033,19.927,-25.006,-16.801,33.211
'[17:56:45.398 10/08/2055]',-72.283,-81.270,-16.801,3.126,0.000,-105.104,-39.463,-32.039,10.159,0.000,10.159,-37.900,0.000,-78.926,-29.695,14.066,-9.377,0.000,-58.608,-102.369,74.237,-17.192,0.000,16.801,18.364,-26.178,-67.595,74.237
'[17:56:45.402 10/08/2055]',-78.926,-80.098,-20.317,0.000,0.000,-105.885,-40.244,-41.416,8.205,0.000,6.252,-47.668,0.000,-60.562,-33.211,7.814,-5.079,0.000,-42.979,-96.899,62.125,-12.112,0.000,20.317,19.927,-25.397,-64.078,62.125
'[17:56:45.406 10/08/2055]',-50.403,-73.065,-34.774,-11.722,0.000,-71.502,-48.840,-50.794,0.391,0.000,0.391,-60.562,0.000,-57.827,-50.794,0.000,-10.159,0.000,-48.059,-31.258,-35.556,-2.735,0.000,34.774,10.159,-30.867,4.689,-35.556
'[17:56:45.410 10/08/2055]',-15.629,-76.190,-36.728,-10.940,0.000,-39.463,-42.589,-58.608,1.563,0.000,-1.954,-67.595,0.000,-58.217,-49.231,-12.112,0.781,0.000,-37.118,-19.927,-88.303,26.960,0.000,36.728,12.503,-30.867,26.960,-88.303
'[17:56:45.414 10/08/2055]',-45.324,-80.488,-34.383,-14.847,0.000,-63.687,-41.026,-63.687,-7.033,0.000,1.563,-66.813,0.000,-87.912,-28.523,-0.391,-10.549,0.000,-55.873,-23.053,-35.946,-11.722,0.000,34.383,21.490,-18.364,5.861,-35.946
'[17:56:45.418 10/08/2055]',-42.198,-70.720,-28.132,-12.503,0.000,-48.840,-39.853,-59.389,-5.470,0.000,8.205,-60.952,0.000,-93.382,-22.271,12.112,-2.735,0.000,-81.661,-19.927,21.490,-25.397,0.000,28.132,16.020,-40.244,16.020,21.490
'[17:56:45.422 10/08/2055]',-43.761,-68.376,-27.741,-12.894,0.000,-54.701,-35.165,-57.827,-4.689,0.000,9.768,-62.515,0.000,-42.979,-17.973,1.172,-7.424,0.000,-36.337,-73.065,58.608,-16.410,0.000,27.741,17.192,-28.913,-48.449,58.608
'[17:56:45.426 10/08/2055]',-46.496,-73.455,-16.410,-25.006,0.000,-67.204,-30.085,-50.403,-13.675,0.000,4.689,-59.389,0.000,-89.084,-12.894,3.907,-15.238,0.000,-68.376,-80.879,53.919,-17.582,0.000,16.410,23.834,-23.053,-62.125,53.919
'[17:56:45.430 10/08/2055]',-6.642,-75.018,-11.722,-26.569,0.000,-23.443,-37.509,-46.105,-12.503,0.000,-0.781,-59.389,0.000,-50.403,-31.648,0.391,-16.020,0.000,-32.039,-75.018,16.020,-5.470,0.000,11.722,21.880,-16.801,-45.714,16.020
'[17:56:45.434 10/08/2055]',-2.344,-70.330,-18.364,-27.741,0.000,-29.304,-30.085,-43.761,-15.238,0.000,-10.940,-56.654,0.000,20.317,-49.231,3.907,-14.457,0.000,26.569,-66.813,-1.954,1.954,0.000,18.364,19.145,-16.801,-41.026,-1.954
'[17:56:45.438 10/08/2055]',-4.689,-69.548,-14.457,-21.880,0.000,-28.913,-26.178,-38.681,-16.801,0.000,-4.689,-47.277,0.000,-33.211,-35.946,7.424,-8.987,0.000,-26.569,-44.542,0.781,0.000,0.000,14.457,24.225,-21.880,-20.317,0.781
'[17:56:45.441 10/08/2055]',-10.940,-60.562,-7.033,-24.615,0.000,-27.741,-22.271,-33.602,-19.536,0.000,2.344,-41.416,0.000,-59.780,-33.602,13.284,-5.079,0.000,-55.092,-26.960,2.344,-4.689,0.000,7.033,21.099,-21.490,-3.126,2.344
'[17:56:45.445 10/08/2055]',-10.159,-54.310,-10.159,-22.662,0.000,-33.211,-14.066,-28.913,-21.099,0.000,5.079,-37.900,0.000,-49.231,-23.443,12.112,-0.391,0.000,-36.728,-27.350,0.000,3.126,0.000,10.159,21.099,-32.821,0.000,0.000
'[17:56:45.449 10/08/2055]',-24.615,-57.045,-2.735,-32.821,0.000,-51.184,-13.675,-24.615,-27.350,0.000,3.516,-32.039,0.000,-128.547,-8.987,11.722,-7.033,0.000,-91.038,-44.542,0.391,2.735,0.000,2.735,24.615,-29.695,-19.145,0.391
'[17:56:45.453 10/08/2055]',-37.118,-61.734,-1.563,-32.821,0.000,-69.548,-14.847,-20.317,-27.741,0.000,2.735,-25.006,0.000,-103.932,-13.284,17.582,-14.457,0.000,-60.562,-58.217,9.768,-4.689,0.000,1.563,28.132,-37.118,-26.178,9.768
'[17:56:45.457 10/08/2055]',-8.987,-61.734,-4.298,-29.304,0.000,-40.244,-17.973,-14.847,-30.867,0.000,-8.596,-16.410,0.000,-26.569,-17.973,23.443,-14.066,0.000,9.377,-49.231,13.675,-9.377,0.000,4.298,25.788,-37.900,-17.973,13.675
'[17:56:45.461 10/08/2055]',8.596,-59.780,-5.470,-26.178,0.000,-18.755,-15.629,-12.112,-34.774,0.000,-8.205,-5.861,0.000,13.284,-25.006,22.662,-10.159,0.000,28.523,-11.722,-17.973,2.344,0.000,5.470,25.397,-37.509,3.907,-17.973
'[17:56:45.465 10/08/2055]',16.410,-57.436,1.954,-22.271,0.000,-1.172,-19.536,-5.470,-33.602,0.000,-10.940,1.172,0.000,6.252,-32.039,22.271,-5.079,0.000,0.000,35.165,-47.277,4.689,0.000,-1.954,19.145,-44.151,57.045,-47.277
'[17:56:45.469 10/08/2055]',33.993,-44.542,4.689,-25.006,0.000,15.629,-8.987,-1.172,-35.165,0.000,-13.675,6.252,0.000,-7.033,-31.258,15.238,0.000,0.000,-21.880,60.171,-81.270,19.536,0.000,-4.689,10.549,-40.635,80.879,-81.270
'[17:56:45.473 10/08/2055]',7.033,-48.840,2.735,-22.271,0.000,-21.490,-5.861,-1.172,-30.867,0.000,-16.410,8.205,0.000,-33.602,-35.946,12.112,2.735,0.000,-39.853,28.523,-81.661,38.291,0.000,-2.735,12.894,-33.211,44.933,-81.661
'[17:56:45.477 10/08/2055]',-8.205,-42.198,4.689,-22.271,0.000,-40.244,-4.689,4.298,-26.569,0.000,-17.582,15.629,0.000,-19.536,-30.085,25.788,-10.549,0.000,-37.900,-7.424,14.457,-2.344,0.000,-4.689,9.377,-46.496,10.940,14.457
'[17:56:45.480 10/08/2055]',-37.118,-36.728,4.298,-15.629,0.000,-69.548,-3.516,7.814,-19.536,0.000,-17.192,22.662,0.000,-18.755,-18.755,34.383,-17.192,0.000,-35.165,-51.966,79.707,-12.503,0.000,-4.298,9.377,-46.886,-38.681,79.707
'[17:56:45.484 10/08/2055]',-41.807,-40.635,5.470,-8.987,0.000,-78.144,-3.516,10.159,-14.457,0.000,-15.238,27.741,0.000,-11.331,-6.252,40.635,-19.145,0.000,-17.192,-55.482,96.508,-19.536,0.000,-5.470,13.675,-44.933,-46.886,96.508
'[17:56:45.488 10/08/2055]',-11.331,-41.026,7.814,-7.033,0.000,-42.979,-8.205,12.503,-12.503,0.000,-13.284,30.476,0.000,-5.079,-10.159,35.556,-19.145,0.000,-18.755,-34.383,67.595,-12.503,0.000,-7.814,14.847,-42.589,-26.960,67.595
'[17:56:45.492 10/08/2055]',-5.079,-35.165,12.503,-6.642,0.000,-41.807,0.000,15.238,-8.596,0.000,-12.894,30.085,0.000,-38.681,-4.689,26.960,-15.629,0.000,-50.403,-21.490,40.635,0.000,0.000,-12.503,10.159,-37.900,-10.940,40.635
'[17:56:45.496 10/08/2055]',4.298,-39.072,11.331,-3.126,0.000,-32.821,-1.954,16.410,-7.424,0.000,-10.549,28.913,0.000,-38.681,-8.596,23.834,-12.503,0.000,-48.449,10.940,-6.252,6.642,0.000,-11.331,12.112,-32.430,22.662,-6.252
'[17:56:45.500 10/08/2055]',20.708,-35.946,16.801,-3.907,0.000,-13.284,-0.781,17.582,-5.470,0.000,-10.940,23.443,0.000,-11.722,-21.099,13.675,-1.172,0.000,-21.880,51.184,-88.694,39.853,0.000,-16.801,10.159,-22.662,61.343,-88.694
'[17:56:45.504 10/08/2055]',21.490,-29.304,19.927,-0.391,0.000,-10.549,2.735,18.755,-0.391,0.000,-7.814,20.317,0.000,-1.172,-19.145,14.066,-3.126,0.000,-10.159,24.225,-56.264,31.648,0.000,-19.927,8.596,-17.973,35.165,-56.264
'[17:56:45.508 10/08/2055]',-15.238,-28.523,15.238,9.768,0.000,-44.542,2.735,15.629,5.861,0.000,-5.079,20.708,0.000,-40.635,-3.516,21.099,1.172,0.000,-42.979,44.151,-40.244,17.973,0.000,-15.238,10.549,-24.615,53.919,-40.244
'[17:56:45.512 10/08/2055]',-28.523,-30.867,10.940,12.112,0.000,-57.827,1.172,10.159,8.596,0.000,-6.252,14.457,0.000,-55.873,-8.205,14.066,4.298,0.000,-40.635,-11.722,-19.145,27.350,0.000,-10.940,14.847,-10.159,2.344,-19.145
'[17:56:45.516 10/08/2055]',-26.569,-34.383,2.735,16.801,0.000,-54.310,-2.344,5.079,10.159,0.000,-1.563,10.549,0.000,-50.012,-7.814,19.536,-10.159,0.000,-51.575,-86.349,98.071,-8.987,0.000,-2.735,19.536,-18.755,-69.939,98.071
'[17:56:45.520 10/08/2055]',-60.562,-32.039,-5.470,14.847,0.000,-81.270,-9.768,-0.781,8.987,0.000,-0.391,10.159,0.000,-45.324,-10.549,27.741,-17.192,0.000,-53.529,-81.661,114.872,-25.006,0.000,5.470,20.317,-34.774,-56.264,114.872
'[17:56:45.523 10/08/2055]',-47.668,-36.337,-5.861,15.238,0.000,-62.906,-17.192,-3.907,9.377,0.000,-6.642,6.642,0.000,-17.192,-23.834,19.927,-11.722,0.000,-23.053,-47.277,37.118,0.391,0.000,5.861,23.834,-17.582,-32.821,37.118
'[17:56:45.527 10/08/2055]',11.331,-31.648,-10.159,19.145,0.000,0.391,-17.582,-5.861,12.503,0.000,-5.079,6.642,0.000,0.781,-27.741,17.192,-7.033,0.000,-8.596,-11.722,-16.801,19.927,0.000,10.159,21.099,-15.238,-5.079,-16.801
'[17:56:45.531 10/08/2055]',27.741,-30.867,-14.847,25.006,0.000,20.317,-16.801,-7.424,10.940,0.000,-7.033,8.205,0.000,-11.722,-26.569,17.582,-0.781,0.000,-9.377,58.999,-108.620,37.509,0.000,14.847,20.708,-8.205,70.330,-108.620
'[17:56:45.535 10/08/2055]',23.053,-39.853,-14.457,35.946,0.000,13.284,-13.284,-8.205,12.894,0.000,-10.159,7.814,0.000,-18.364,-22.271,14.457,-0.781,0.000,-7.033,46.105,-98.071,32.430,0.000,14.457,24.615,2.735,60.562,-98.071
'[17:56:45.539 10/08/2055]',17.192,-42.589,-19.536,40.244,0.000,1.172,-8.205,-7.814,9.768,0.000,-5.470,10.159,0.000,-37.118,-6.252,24.615,-10.549,0.000,-38.291,-21.490,36.337,-5.861,0.000,19.536,28.132,-9.377,-6.252,36.337
'[17:56:45.543 10/08/2055]',-25.397,-40.635,-23.053,33.993,0.000,-46.496,-3.907,-8.987,3.907,0.000,1.563,12.894,0.000,-27.350,-3.516,36.337,-28.132,0.000,-13.284,-66.813,84.786,-26.960,0.000,23.053,28.913,-10.159,-35.165,84.786
'[17:56:45.547 10/08/2055]',-75.409,-44.542,-22.662,30.867,0.000,-103.541,0.000,-12.503,3.907,0.000,5.079,8.987,0.000,-20.708,1.172,30.476,-38.291,0.000,-28.132,-60.171,90.647,-28.132,0.000,22.662,30.867,-10.549,-50.794,90.647
'[17:56:45.551 10/08/2055]',-42.589,-42.979,-26.960,28.132,0.000,-72.674,-3.516,-14.066,5.861,0.000,10.159,8.596,0.000,-17.192,5.079,35.165,-34.383,0.000,-27.741,-38.681,79.707,-23.443,0.000,26.960,31.258,-21.490,-36.728,79.707
'[17:56:45.555 10/08/2055]',-5.470,-42.589,-25.397,25.006,0.000,-36.337,-3.907,-15.629,8.205,0.000,17.192,6.642,0.000,-14.457,10.159,33.211,-31.648,0.000,-12.894,-7.814,25.788,-6.642,0.000,25.397,28.132,-11.722,-10.159,25.788
'[17:56:45.559 10/08/2055]',0.000,-43.761,-26.569,24.225,0.000,-28.132,-5.861,-16.801,5.079,0.000,15.238,1.172,0.000,-14.847,12.503,28.132,-37.509,0.000,-25.788,15.629,8.596,-8.987,0.000,26.569,28.132,-21.880,13.675,8.596
'[17:56:45.563 10/08/2055]',35.165,-36.337,-20.317,20.708,0.000,11.722,-6.642,-10.549,5.079,0.000,15.629,5.861,0.000,-17.192,18.364,35.556,-31.648,0.000,-25.788,7.424,40.635,-15.629,0.000,20.317,24.615,-33.602,10.549,40.635
'[17:56:45.566 10/08/2055]',9.377,-30.085,-16.020,21.099,0.000,-8.596,-8.205,-5.861,7.033,0.000,19.145,10.549,0.000,-27.741,23.443,37.900,-31.258,0.000,-30.085,12.894,31.648,-11.722,0.000,16.020,18.364,-35.165,21.490,31.648
'[17:56:45.570 10/08/2055]',-7.033,-19.145,-11.331,12.503,0.000,-25.788,0.781,-1.563,0.781,0.000,21.490,14.066,0.000,-7.424,20.317,33.602,-36.337,0.000,-15.629,14.457,17.973,-5.861,0.000,11.331,9.377,-38.681,30.867,17.973
'[17:56:45.574 10/08/2055]',-20.708,-17.192,-4.689,21.880,0.000,-41.807,7.424,5.470,6.642,0.000,19.536,23.053,0.000,-20.317,20.317,39.853,-25.397,0.000,-31.648,24.615,19.145,1.954,0.000,4.689,6.252,-35.165,37.118,19.145
'[17:56:45.578 10/08/2055]',-25.788,-14.847,-7.814,25.397,0.000,-36.728,-1.172,7.424,6.642,0.000,23.443,26.569,0.000,0.000,19.145,46.105,-26.569,0.000,-13.675,15.629,42.589,-5.079,0.000,7.814,5.470,-35.946,24.615,42.589
'[17:56:45.582 10/08/2055]',3.126,-10.159,4.298,16.801,0.000,-1.954,-0.391,9.768,6.252,0.000,24.615,28.523,0.000,1.954,12.503,46.886,-23.053,0.000,-20.317,11.331,47.668,0.000,0.000,-4.298,3.126,-36.728,21.490,47.668
'[17:56:45.586 10/08/2055]',5.861,-4.298,7.424,17.582,0.000,3.907,-0.391,11.722,11.331,0.000,21.880,31.648,0.000,5.079,7.424,47.668,-19.927,0.000,-25.397,-0.781,62.515,5.079,0.000,-7.424,1.172,-44.542,9.768,62.515
'[17:56:45.590 10/08/2055]',11.331,-2.344,11.331,17.192,0.000,17.192,-7.814,12.503,16.020,0.000,14.847,33.602,0.000,10.159,7.424,50.403,-22.662,0.000,-22.662,-3.516,67.595,5.079,0.000,-11.331,-0.391,-48.449,0.000,67.595
'[17:56:45.594 10/08/2055]',16.801,-1.954,21.099,15.238,0.000,23.443,-4.298,14.457,18.364,0.000,10.549,36.337,0.000,0.781,12.894,45.714,-16.020,0.000,-36.728,0.000,68.376,12.503,0.000,-21.099,-3.126,-45.714,6.642,68.376
'[17:56:45.598 10/08/2055]',9.768,0.781,21.880,12.894,0.000,12.503,1.954,14.457,16.410,0.000,1.954,36.728,0.000,0.000,14.066,43.761,-17.582,0.000,-36.728,2.735,59.780,14.066,0.000,-21.880,-7.424,-41.416,11.331,59.780
'[17:56:45.602 10/08/2055]',-6.642,-1.172,16.020,9.768,0.000,-1.954,-2.735,10.940,12.112,0.000,-3.516,31.648,0.000,-26.960,21.099,40.635,-22.271,0.000,-54.701,4.689,53.529,8.596,0.000,-16.020,-6.642,-41.026,13.284,53.529
'[17:56:45.605 10/08/2055]',-23.834,-3.907,18.364,8.205,0.000,-25.788,-1.172,10.940,14.457,0.000,-8.596,29.695,0.000,-16.020,13.675,38.291,-12.112,0.000,-49.621,7.424,50.012,14.847,0.000,-18.364,-3.126,-41.026,14.457,50.012
'[17:56:45.609 10/08/2055]',-46.105,-0.391,16.020,-0.391,0.000,-50.403,-0.391,7.814,11.722,0.000,-13.675,25.788,0.000,-18.364,3.907,34.383,-11.722,0.000,-56.264,8.596,35.165,19.145,0.000,-16.020,-3.516,-47.668,16.801,35.165
'[17:56:45.613 10/08/2055]',-15.629,-3.907,17.582,1.563,0.000,-16.410,-5.079,5.861,14.847,0.000,-17.582,22.662,0.000,-0.391,-0.781,33.993,-9.768,0.000,-39.463,7.424,33.602,20.317,0.000,-17.582,-2.344,-48.449,14.066,33.602
'[17:56:45.617 10/08/2055]',11.331,-6.252,17.582,2.735,0.000,22.662,-16.801,1.563,18.755,0.000,-28.523,19.927,0.000,62.515,-13.675,32.039,0.000,0.000,9.377,5.861,35.556,28.132,0.000,-17.582,-1.172,-49.621,7.814,35.556
'[17:56:45.621 10/08/2055]',32.821,-10.549,13.675,3.516,0.000,55.873,-26.178,-3.516,13.675,0.000,-33.211,14.847,0.000,72.674,-20.317,31.648,3.516,0.000,18.364,4.689,37.118,27.350,0.000,-13.675,0.781,-50.403,9.377,37.118
'[17:56:45.625 10/08/2055]',58.217,-16.410,12.112,7.814,0.000,89.475,-32.039,-9.768,14.847,0.000,-38.291,8.205,0.000,61.734,-28.132,29.304,2.735,0.000,6.642,1.172,28.913,28.132,0.000,-12.112,1.563,-44.933,6.642,28.913
'[17:56:45.629 10/08/2055]',64.078,-19.536,0.000,3.126,0.000,97.289,-39.463,-17.192,8.205,0.000,-41.807,0.781,0.000,28.523,-34.383,26.178,-0.781,0.000,-21.880,-5.470,21.880,25.006,0.000,0.000,3.516,-49.621,1.954,21.880
'[17:56:45.633 10/08/2055]',22.271,-21.490,-3.126,-0.781,0.000,48.059,-37.118,-19.927,5.079,0.000,-39.463,-1.563,0.000,-18.364,-33.993,24.225,-2.735,0.000,-61.343,-10.159,15.629,24.225,0.000,3.126,8.987,-52.747,-3.126,15.629
'[17:56:45.637 10/08/2055]',-23.443,-20.708,-5.079,-7.033,0.000,-16.020,-24.615,-19.927,3.516,0.000,-29.695,-3.126,0.000,-49.231,-31.648,21.490,-7.814,0.000,-85.568,-15.629,7.033,26.178,0.000,5.079,8.205,-57.436,-5.079,7.033
'[17:56:45.641 10/08/2055]',-39.072,-23.053,-11.331,-11.722,0.000,-46.496,-16.020,-20.317,-3.126,0.000,-29.304,-7.033,0.000,-53.138,-27.741,19.145,-17.582,0.000,-82.833,-21.490,4.298,19.536,0.000,11.331,10.159,-51.184,-13.675,4.298
'[17:56:45.645 10/08/2055]',-43.370,-24.225,-10.159,-4.689,0.000,-69.548,0.000,-18.755,3.516,0.000,-23.443,-7.424,0.000,-23.834,-22.662,16.801,-10.159,0.000,-49.621,-23.053,4.298,27.350,0.000,10.159,13.675,-46.496,-16.801,4.298
'[17:56:45.648 10/08/2055]',-46.886,-33.602,-12.894,4.689,0.000,-83.614,4.689,-18.364,7.424,0.000,-18.755,-11.331,0.000,-5.079,-26.960,12.503,-8.987,0.000,-35.556,-25.788,3.126,28.913,0.000,12.894,19.536,-42.198,-16.020,3.126
'[17:56:45.652 10/08/2055]',21.099,-30.476,-16.801,5.079,0.000,-2.344,-5.470,-18.755,5.470,0.000,-18.364,-15.629,0.000,7.424,-30.476,8.987,-17.582,0.000,-27.741,-29.695,5.470,21.099,0.000,16.801,18.755,-47.277,-12.112,5.470
'[17:56:45.656 10/08/2055]',48.059,-29.304,-14.457,17.582,0.000,34.774,-12.894,-18.364,17.192,0.000,-17.973,-17.582,0.000,8.596,-29.304,7.033,-7.033,0.000,-28.132,-30.867,6.252,32.821,0.000,14.457,17.973,-41.807,-15.238,6.252
'[17:56:45.660 10/08/2055]',-1.563,-33.602,-17.973,17.192,0.000,-8.596,-24.615,-18.755,14.457,0.000,-10.940,-18.755,0.000,-7.814,-28.913,5.470,-15.238,0.000,-46.886,-27.741,2.344,25.788,0.000,17.973,19.927,-46.886,-8.987,2.344
'[17:56:45.664 10/08/2055]',4.689,-34.774,-16.801,10.549,0.000,1.172,-27.741,-18.755,8.596,0.000,-8.205,-17.582,0.000,-21.099,-23.443,8.987,-22.662,0.000,-50.794,-32.821,3.907,20.708,0.000,16.801,20.708,-45.714,-12.503,3.907
'[17:56:45.668 10/08/2055]',7.814,-37.509,-14.847,17.192,0.000,5.470,-27.350,-16.410,10.940,0.000,-8.987,-12.503,0.000,-19.927,-18.755,13.675,-14.066,0.000,-44.933,-43.370,14.457,33.211,0.000,14.847,23.834,-40.635,-26.569,14.457
'[17:56:45.672 10/08/2055]',-11.331,-40.244,-16.020,16.020,0.000,-21.099,-24.225,-13.284,7.814,0.000,-7.814,-7.033,0.000,-2.735,-21.880,17.582,-17.582,0.000,-30.476,-42.589,17.973,29.695,0.000,16.020,26.960,-42.589,-29.304,17.973
'[17:56:45.676 10/08/2055]',11.331,-37.509,0.000,17.582,0.000,-2.735,-16.410,-3.126,14.066,0.000,-5.470,3.126,0.000,19.536,-21.490,25.397,-7.814,0.000,-16.410,-22.271,16.801,36.337,0.000,0.000,24.225,-51.575,-5.470,16.801
'[17:56:45.680 10/08/2055]',12.894,-28.913,-3.516,19.145,0.000,-3.516,-10.159,2.735,10.159,0.000,-1.954,9.768,0.000,25.006,-14.847,28.913,-11.331,0.000,-11.331,-14.457,13.675,39.463,0.000,3.516,17.973,-54.310,-0.391,13.675
'[17:56:45.684 10/08/2055]',-25.006,-24.225,-8.596,23.053,0.000,-56.654,0.781,7.424,12.112,0.000,5.470,13.675,0.000,14.066,-4.298,29.304,-9.768,0.000,-11.722,-5.861,16.410,30.476,0.000,8.596,10.159,-50.403,6.252,16.410
'[17:56:45.688 10/08/2055]',-4.298,-21.880,-7.033,10.549,0.000,-35.556,-0.781,9.768,2.735,0.000,13.284,13.675,0.000,-30.867,3.516,31.648,-24.225,0.000,-38.681,11.331,-8.987,15.629,0.000,7.033,11.331,-51.184,35.556,-8.987
'[17:56:45.691 10/08/2055]',4.689,-26.569,-8.596,12.112,0.000,-19.536,-8.596,10.159,-0.781,0.000,12.503,14.847,0.000,-35.165,15.238,31.258,-24.615,0.000,-22.662,-41.416,36.728,14.066,0.000,8.596,17.192,-37.900,-21.490,36.728
'[17:56:45.695 10/08/2055]',26.178,-28.913,-1.172,10.159,0.000,6.642,-14.847,12.503,1.172,0.000,9.768,13.675,0.000,-13.675,3.516,28.913,-19.927,0.000,-7.814,-52.747,38.291,19.927,0.000,1.172,21.099,-31.648,-33.602,38.291
'[17:56:45.699 10/08/2055]',57.045,-24.615,9.768,6.252,0.000,49.231,-19.536,16.801,1.954,0.000,9.377,13.675,0.000,26.178,-3.907,32.430,-16.801,0.000,1.954,-37.900,51.966,20.708,0.000,-9.768,19.536,-50.403,-21.880,51.966
'[17:56:45.703 10/08/2055]',65.641,-22.271,17.192,5.861,0.000,62.515,-16.801,21.490,0.000,0.000,14.066,15.629,0.000,80.488,0.781,33.993,-15.238,0.000,24.225,-15.238,63.687,27.350,0.000,-17.192,18.364,-76.581,-8.596,63.687
'[17:56:45.707 10/08/2055]',81.270,-19.145,18.364,6.642,0.000,70.720,-3.907,24.225,-2.735,0.000,14.457,14.066,0.000,92.991,-0.781,33.993,-16.020,0.000,18.364,6.642,56.654,27.350,0.000,-18.364,14.847,-82.051,2.735,56.654
'[17:56:45.711 10/08/2055]',78.535,-21.099,25.006,0.000,0.000,57.436,2.735,27.741,-6.252,0.000,19.145,12.894,0.000,65.250,5.861,38.681,-17.973,0.000,-8.987,22.662,58.217,19.927,0.000,-25.006,16.020,-98.852,20.317,58.217
'[17:56:45.715 10/08/2055]',64.469,-30.085,27.350,-2.344,0.000,32.821,7.814,26.960,-8.987,0.000,25.397,11.331,0.000,48.059,10.159,41.026,-19.145,0.000,-20.708,23.834,59.780,16.410,0.000,-27.350,26.569,-109.402,19.536,59.780
'[17:56:45.719 10/08/2055]',48.059,-41.026,25.788,-0.391,0.000,1.172,12.503,25.397,-7.814,0.000,25.788,10.159,0.000,57.045,4.689,41.807,-10.549,0.000,-10.940,19.145,67.204,16.801,0.000,-25.788,36.728,-117.216,11.722,67.204
'[17:56:45.723 10/08/2055]',67.985,-42.198,28.132,-3.907,0.000,19.536,8.987,27.741,-8.596,0.000,25.006,10.940,0.000,62.125,0.000,46.886,-7.033,0.000,-12.503,28.913,69.158,15.629,0.000,-28.132,41.416,-129.719,15.238,69.158
'[17:56:45.727 10/08/2055]',99.634,-44.542,22.662,-5.861,0.000,46.105,10.159,24.615,-10.549,0.000,26.960,13.284,0.000,76.581,0.391,50.012,-3.907,0.000,-7.814,45.324,69.548,14.847,0.000,-22.662,50.794,-157.851,26.178,69.548
'[17:56:45.730 10/08/2055]',144.957,-42.979,15.238,-2.735,0.000,91.429,10.159,23.053,-11.722,0.000,28.523,16.801,0.000,85.177,5.079,52.357,-3.126,0.000,-1.954,56.264,72.674,12.112,0.000,-15.238,54.310,-170.745,32.039,72.674
'[17:56:45.734 10/08/2055]',169.182,-44.542,19.536,-14.847,0.000,104.713,16.801,23.053,-17.192,0.000,28.132,19.927,0.000,68.767,16.410,55.873,-6.252,0.000,-9.768,66.813,70.720,7.424,0.000,-19.536,56.654,-175.043,34.383,70.720
'[17:56:45.738 10/08/2055]',168.010,-46.496,19.927,-18.755,0.000,87.912,25.006,20.708,-13.284,0.000,32.821,24.615,0.000,62.906,23.834,57.436,-6.252,0.000,-15.629,76.972,71.893,5.470,0.000,-19.927,63.297,-191.453,40.635,71.893
'[17:56:45.742 10/08/2055]',169.573,-44.151,13.675,-23.053,0.000,77.363,30.085,19.927,-12.894,0.000,32.430,29.304,0.000,72.283,32.821,61.343,-10.549,0.000,-10.940,92.210,79.316,-3.907,0.000,-13.675,62.125,-199.267,47.277,79.316
'[17:56:45.746 10/08/2055]',156.288,-49.231,18.364,-25.788,0.000,55.873,27.741,21.880,-7.814,0.000,30.476,34.774,0.000,83.614,42.589,65.641,-15.238,0.000,-3.907,107.448,81.661,-7.033,0.000,-18.364,65.641,-207.863,51.966,81.661
'[17:56:45.750 10/08/2055]',187.155,-48.840,7.814,-26.178,0.000,81.270,22.662,19.927,-5.470,0.000,28.913,37.900,0.000,81.270,52.747,67.595,-16.410,0.000,-12.503,120.733,82.833,-4.298,0.000,-7.814,70.330,-228.571,57.436,82.833
'[17:56:45.754 10/08/2055]',232.088,-44.542,1.954,-25.397,0.000,122.686,22.662,18.755,-1.954,0.000,33.602,40.635,0.000,88.694,67.204,71.893,-15.238,0.000,-10.549,134.408,94.164,-5.079,0.000,-1.954,70.330,-248.889,67.204,94.164
'[17:56:45.758 10/08/2055]',217.241,-42.979,-1.954,-23.834,0.000,105.495,23.053,17.973,-1.172,0.000,39.463,39.853,0.000,99.243,79.707,72.283,-12.112,0.000,-2.735,149.255,92.991,0.000,0.000,1.954,71.893,-259.829,70.720,92.991
'[17:56:45.762 10/08/2055]',225.055,-44.542,-7.424,-28.523,0.000,104.322,25.788,15.629,-4.298,0.000,41.026,37.900,0.000,87.521,85.568,71.111,-11.331,0.000,-7.814,149.255,92.601,-0.391,0.000,7.424,76.972,-264.908,63.297,92.601
'[17:56:45.766 10/08/2055]',252.015,-43.370,-8.596,-33.211,0.000,124.640,28.132,13.675,-3.516,0.000,42.589,33.993,0.000,121.514,81.270,69.939,-7.033,0.000,15.629,155.507,96.117,-1.563,0.000,8.596,78.144,-275.458,64.860,96.117
'[17:56:45.770 10/08/2055]',250.061,-48.449,-5.470,-37.118,0.000,123.468,21.490,13.284,-2.344,0.000,39.463,30.085,0.000,144.957,80.488,68.767,-6.252,0.000,39.463,164.884,88.694,-3.907,0.000,5.470,82.442,-280.928,73.065,88.694
'[17:56:45.773 10/08/2055]',272.723,-58.999,-15.238,-34.383,0.000,144.567,11.331,9.377,-4.298,0.000,26.178,23.834,0.000,168.010,68.767,60.952,-6.642,0.000,58.217,164.103,73.455,-4.689,0.000,15.238,96.117,-272.723,61.734,73.455
'[17:56:45.777 10/08/2055]',313.748,-54.701,-19.536,-38.681,0.000,179.341,12.503,6.252,-0.391,0.000,25.006,20.317,0.000,161.758,66.813,55.482,4.689,0.000,51.184,164.884,71.111,1.563,0.000,19.536,97.289,-272.723,57.045,71.111
'[17:56:45.781 10/08/2055]',294.603,-52.357,-21.490,-42.979,0.000,162.930,10.159,3.126,-2.344,0.000,23.834,16.410,0.000,157.070,65.641,50.794,7.424,0.000,58.217,160.195,61.343,0.391,0.000,21.490,98.071,-264.518,55.092,61.343
'[17:56:45.785 10/08/2055]',235.604,-44.151,-38.291,-35.556,0.000,105.495,8.987,-0.781,0.000,0.000,16.410,14.457,0.000,184.420,50.794,43.370,13.675,0.000,87.131,166.838,32.430,5.079,0.000,38.291,94.945,-246.935,56.654,32.430
'[17:56:45.789 10/08/2055]',262.955,-30.867,-32.039,-42.198,0.000,140.269,8.205,1.172,3.516,0.000,16.410,19.927,0.000,149.646,43.761,43.761,21.490,0.000,67.204,160.195,24.615,7.033,0.000,32.039,81.270,-223.883,50.012,24.615
'[17:56:45.793 10/08/2055]',254.359,-32.039,-25.397,-41.416,0.000,134.408,9.377,1.563,5.861,0.000,16.801,23.834,0.000,132.845,41.416,46.105,25.788,0.000,62.515,162.930,16.410,5.079,0.000,25.397,79.707,-215.678,58.217,16.410
'[17:56:45.797 10/08/2055]',263.346,-26.960,-25.006,-35.165,0.000,145.348,6.252,5.861,14.066,0.000,8.205,30.867,0.000,152.381,32.821,45.714,35.165,0.000,86.740,191.062,-22.271,11.331,0.000,25.006,71.893,-200.830,85.177,-22.271
'[17:56:45.801 10/08/2055]',295.385,-37.118,-9.768,-30.867,0.000,177.387,5.861,11.331,18.364,0.000,7.424,40.244,0.000,116.435,30.476,48.449,42.979,0.000,60.171,153.162,16.020,8.596,0.000,9.768,81.661,-188.718,43.761,16.020
'[17:56:45.805 10/08/2055]',284.054,-42.198,-6.642,-32.039,0.000,161.368,8.987,10.159,17.192,0.000,10.159,42.979,0.000,115.263,32.430,48.840,48.449,0.000,73.846,154.725,7.424,8.596,0.000,6.642,85.958,-185.201,48.449,7.424
'[17:56:45.809 10/08/2055]',248.889,-46.886,-18.755,-23.053,0.000,121.123,7.814,7.814,17.973,0.000,1.172,44.151,0.000,146.911,16.410,45.324,50.794,0.000,104.322,150.818,-0.781,5.861,0.000,18.755,89.084,-182.466,50.794,-0.781
'[17:56:45.813 10/08/2055]',243.028,-44.933,-23.053,-20.317,0.000,132.845,-1.172,5.079,14.066,0.000,-3.907,43.761,0.000,153.553,1.954,41.026,46.105,0.000,106.276,134.017,0.391,2.735,0.000,23.053,81.270,-153.553,33.993,0.391
'[17:56:45.816 10/08/2055]',203.956,-48.449,-27.741,-18.364,0.000,103.150,-3.907,0.000,6.252,0.000,0.000,39.072,0.000,95.336,7.424,33.993,32.039,0.000,55.092,125.031,-6.642,-2.735,0.000,27.741,76.972,-139.487,38.681,-6.642
'[17:56:45.820 10/08/2055]',137.534,-53.529,-35.165,-14.847,0.000,37.900,-3.907,-3.126,0.391,0.000,3.516,32.821,0.000,55.482,17.582,26.569,16.801,0.000,16.020,112.137,-4.689,-4.689,0.000,35.165,73.455,-137.924,43.370,-4.689
'[17:56:45.824 10/08/2055]',157.070,-56.264,-33.602,-16.020,0.000,71.893,-13.675,-1.954,-6.642,0.000,8.205,25.006,0.000,64.860,28.132,18.755,-2.344,0.000,15.238,92.210,11.331,-8.987,0.000,33.602,65.641,-130.501,32.430,11.331
'[17:56:45.828 10/08/2055]',137.924,-66.422,-33.211,-10.940,0.000,56.264,-14.457,-1.563,-14.457,0.000,18.364,15.629,0.000,47.668,43.370,13.675,-19.145,0.000,-11.331,82.833,28.132,-13.284,0.000,33.211,69.158,-139.096,34.774,28.132
'[17:56:45.832 10/08/2055]',139.096,-68.376,-44.151,-5.861,0.000,57.436,-12.503,-3.516,-22.271,0.000,23.834,4.298,0.000,99.634,37.118,6.252,-30.476,0.000,12.112,71.502,41.807,-12.894,0.000,44.151,70.330,-162.149,37.900,41.807
'[17:56:45.836 10/08/2055]',165.665,-67.985,-42.198,-8.596,0.000,85.958,-9.768,-0.781,-29.304,0.000,22.271,-0.391,0.000,157.460,26.178,3.516,-37.509,0.000,41.807,54.701,64.078,-10.549,0.000,42.198,58.217,-167.619,31.648,64.078
'[17:56:45.840 10/08/2055]',153.162,-73.846,-35.556,-5.470,0.000,74.628,-3.516,-1.563,-32.821,0.000,17.192,-5.079,0.000,132.063,28.913,1.172,-39.463,0.000,12.112,43.761,68.767,-3.126,0.000,35.556,54.701,-163.712,24.615,68.767
'[17:56:45.844 10/08/2055]',109.792,-78.144,-35.946,-9.377,0.000,23.834,4.298,-1.954,-42.979,0.000,14.457,-9.377,0.000,88.303,28.523,0.391,-47.277,0.000,-23.834,39.463,58.217,-3.126,0.000,35.946,53.138,-171.526,33.993,58.217
'[17:56:45.848 10/08/2055]',91.429,-68.767,-33.211,-10.549,0.000,10.159,9.768,-0.781,-42.589,0.000,12.112,-10.549,0.000,23.834,33.211,0.781,-41.026,0.000,-69.158,22.662,54.701,7.814,0.000,33.211,39.853,-165.275,26.178,54.701
'[17:56:45.852 10/08/2055]',82.833,-68.376,-32.821,-5.861,0.000,15.238,3.516,-2.344,-43.370,0.000,10.159,-13.284,0.000,12.503,28.913,0.781,-32.430,0.000,-74.628,20.708,43.370,19.536,0.000,32.821,39.463,-168.791,26.569,43.370
'[17:56:45.855 10/08/2055]',105.104,-64.469,-32.039,-1.563,0.000,48.840,3.126,-0.781,-45.324,0.000,-0.781,-10.549,0.000,52.357,5.079,3.516,-30.085,0.000,-48.449,46.105,12.894,20.708,0.000,32.039,37.509,-170.745,48.840,12.894
'[17:56:45.859 10/08/2055]',130.501,-52.747,-25.397,5.470,0.000,85.177,5.861,3.126,-39.463,0.000,-11.331,0.781,0.000,89.084,-17.192,6.642,-3.516,0.000,-26.178,-1.563,60.952,41.807,0.000,25.397,31.258,-173.480,0.391,60.952
'[17:56:45.863 10/08/2055]',113.700,-50.012,-14.066,1.172,0.000,75.018,5.079,9.377,-41.416,0.000,-22.271,11.722,0.000,111.746,-32.821,10.549,9.377,0.000,-10.940,-3.516,57.827,56.264,0.000,14.066,22.662,-172.308,-6.252,57.827
'[17:56:45.867 10/08/2055]',89.866,-43.761,-13.675,-3.907,0.000,47.668,12.894,15.629,-51.575,0.000,-27.741,21.490,0.000,67.595,-38.291,14.066,16.410,0.000,-44.542,-3.907,48.059,61.734,0.000,13.675,16.801,-169.182,-10.940,48.059
'[17:56:45.871 10/08/2055]',41.807,-38.291,-15.238,-18.755,0.000,-13.284,24.225,21.099,-65.641,0.000,-23.053,26.960,0.000,0.391,-33.602,13.675,19.536,0.000,-85.568,-19.145,41.416,65.250,0.000,15.238,13.284,-172.698,-21.099,41.416
'[17:56:45.875 10/08/2055]',30.867,-32.430,-17.973,-40.244,0.000,-35.165,28.913,25.788,-82.833,0.000,-19.927,30.867,0.000,-44.151,-28.132,12.894,13.284,0.000,-107.057,-14.457,13.284,63.297,0.000,17.973,3.126,-166.447,-21.099,13.284
'[17:56:45.879 10/08/2055]',35.946,-33.602,-16.801,-58.217,0.000,-44.151,38.291,28.523,-98.462,0.000,-22.271,36.728,0.000,-59.780,-30.085,13.284,5.079,0.000,-112.918,-2.344,-10.159,55.482,0.000,16.801,5.470,-168.010,-16.020,-10.159
'[17:56:45.883 10/08/2055]',76.190,-42.589,0.000,-73.455,0.000,0.000,34.774,32.039,-108.620,0.000,-27.741,45.714,0.000,-14.457,-37.900,15.629,0.781,0.000,-69.939,0.781,-16.801,50.794,0.000,0.000,11.331,-168.791,-13.284,-16.801
'[17:56:45.887 10/08/2055]',100.024,-40.244,12.112,-82.442,0.000,32.821,27.350,37.509,-110.574,0.000,-35.556,54.310,0.000,21.099,-46.496,21.099,-3.126,0.000,-40.635,4.689,-16.801,45.714,0.000,-12.112,7.424,-167.619,-9.768,-16.801
'[17:56:45.891 10/08/2055]',87.521,-39.072,12.112,-85.177,0.000,24.225,19.536,41.026,-112.527,0.000,-44.933,59.780,0.000,17.192,-53.138,28.523,-7.424,0.000,-48.059,17.192,-20.317,37.118,0.000,-12.112,9.768,-164.493,-6.252,-20.317
'[17:56:45.895 10/08/2055]',57.045,-42.979,19.145,-82.833,0.000,0.000,10.940,46.496,-109.011,0.000,-49.621,64.469,0.000,-16.410,-51.184,33.211,-8.987,0.000,-72.674,18.364,-18.755,28.913,0.000,-19.145,10.940,-153.162,0.000,-18.755
'[17:56:45.898 10/08/2055]',30.085,-43.761,19.927,-86.349,0.000,-28.523,5.861,49.621,-108.230,0.000,-48.449,65.641,0.000,-60.952,-48.059,37.509,-17.192,0.000,-105.495,18.364,-17.582,14.847,0.000,-19.927,12.894,-150.818,6.252,-17.582
'[17:56:45.902 10/08/2055]',11.331,-35.946,23.053,-87.912,0.000,-50.403,8.205,51.966,-100.415,0.000,-44.933,66.032,0.000,-98.071,-46.496,39.072,-15.629,0.000,-138.706,19.145,-10.940,7.424,0.000,-23.053,5.470,-142.222,8.205,-10.940
'[17:56:45.906 10/08/2055]',-23.053,-40.244,30.476,-79.316,0.000,-82.442,3.907,50.403,-85.958,0.000,-45.324,64.860,0.000,-85.568,-46.496,39.853,-10.940,0.000,-125.421,20.708,-5.079,5.470,0.000,-30.476,7.424,-129.719,7.814,-5.079
'[17:56:45.910 10/08/2055]',-9.377,-45.324,32.039,-72.674,0.000,-72.283,2.344,48.449,-75.800,0.000,-43.761,58.217,0.000,-63.297,-50.012,39.072,-8.987,0.000,-105.104,17.582,0.000,1.563,0.000,-32.039,8.987,-124.640,14.847,0.000
'[17:56:45.914 10/08/2055]',-13.675,-45.714,25.006,-59.389,0.000,-76.972,-2.735,43.761,-59.389,0.000,-46.105,49.621,0.000,-66.422,-47.277,34.774,-6.252,0.000,-107.448,19.927,5.861,-4.298,0.000,-25.006,7.424,-112.527,18.364,5.861
'[17:56:45.918 10/08/2055]',-25.788,-46.105,9.377,-48.840,0.000,-90.647,-12.503,36.728,-46.105,0.000,-56.654,38.291,0.000,-46.886,-50.403,24.615,-2.735,0.000,-94.164,27.350,-1.563,-8.596,0.000,-9.377,17.973,-114.481,26.569,-1.563
'[17:56:45.922 10/08/2055]',-7.814,-58.608,-1.954,-51.575,0.000,-80.098,-22.271,23.053,-42.979,0.000,-67.595,21.099,0.000,-64.078,-56.654,11.331,-6.252,0.000,-103.932,17.192,-12.894,-17.582,0.000,1.954,26.178,-112.137,28.132,-12.894
'[17:56:45.926 10/08/2055]',2.344,-57.045,-13.675,-52.747,0.000,-71.893,-17.973,5.861,-38.681,0.000,-71.893,6.252,0.000,-96.117,-44.151,1.172,-10.549,0.000,-117.607,8.596,-2.735,-37.900,0.000,13.675,25.397,-103.150,24.615,-2.735
'[17:56:45.930 10/08/2055]',-10.549,-51.575,-32.821,-51.575,0.000,-93.382,-20.708,-5.861,-26.960,0.000,-80.879,-7.814,0.000,-53.529,-57.045,-12.894,-6.642,0.000,-93.382,12.112,-3.126,-46.886,0.000,32.821,29.695,-109.011,24.615,-3.126
'[17:56:45.934 10/08/2055]',-33.602,-51.184,-38.291,-45.324,0.000,-110.965,-25.006,-17.973,-16.410,0.000,-89.084,-21.099,0.000,-53.919,-66.422,-24.615,-7.424,0.000,-92.991,16.020,-19.927,-56.654,0.000,38.291,25.788,-92.991,42.979,-19.927
'[17:56:45.938 10/08/2055]',-49.621,-39.463,-44.151,-31.258,0.000,-100.024,-36.728,-26.569,-3.126,0.000,-90.647,-29.695,0.000,-52.747,-63.687,-33.602,-7.033,0.000,-92.210,17.582,-13.284,-70.330,0.000,44.151,24.225,-79.316,53.138,-13.284
'[17:56:45.941 10/08/2055]',-53.529,-46.105,-53.529,-19.145,0.000,-94.164,-61.734,-30.085,11.331,0.000,-103.932,-36.728,0.000,-28.523,-73.455,-42.979,-1.954,0.000,-90.256,35.556,-20.708,-71.893,0.000,53.529,25.006,-74.237,68.376,-20.708
'[17:56:45.945 10/08/2055]',-67.204,-48.449,-50.403,-12.112,0.000,-97.289,-76.581,-26.960,20.317,0.000,-116.044,-42.589,0.000,-42.198,-79.316,-47.277,-1.172,0.000,-91.038,59.389,-66.422,-71.893,0.000,50.403,53.919,-75.409,101.587,-66.422
'[17:56:45.949 10/08/2055]',-61.343,-54.701,-55.482,-5.079,0.000,-92.991,-75.018,-35.165,24.225,0.000,-117.607,-46.886,0.000,-79.316,-64.078,-48.059,0.000,0.000,-105.495,4.689,-16.410,-74.628,0.000,55.482,49.621,-59.780,51.184,-16.410
'[17:56:45.953 10/08/2055]',-21.490,-77.753,-67.204,1.954,0.000,-91.819,-74.237,-30.085,30.476,0.000,-117.998,-51.966,0.000,-50.012,-60.952,-49.231,-0.391,0.000,-80.879,5.079,1.563,-88.303,0.000,67.204,53.919,-60.562,50.794,1.563
'[17:56:45.957 10/08/2055]',-32.821,-80.098,-69.939,16.020,0.000,-107.057,-73.846,-27.350,40.244,0.000,-120.733,-56.654,0.000,-10.940,-59.780,-60.952,1.954,0.000,-37.509,0.781,-7.814,-84.786,0.000,69.939,54.701,-63.687,73.846,-7.814
'[17:56:45.961 10/08/2055]',-12.894,-70.330,-71.111,13.284,0.000,-74.628,-82.442,-23.053,37.900,0.000,-117.607,-58.999,0.000,-10.940,-55.873,-62.515,-3.516,0.000,-37.900,-3.126,-2.735,-89.084,0.000,71.111,41.416,-40.635,56.264,-2.735
'[17:56:45.965 10/08/2055]',-14.066,-85.568,-67.595,19.927,0.000,-77.363,-87.521,-23.053,40.635,0.000,-116.825,-62.906,0.000,7.814,-64.078,-69.158,-4.298,0.000,-42.979,19.927,-12.894,-94.164,0.000,67.595,33.211,-32.821,82.051,-12.894
'[17:56:45.969 10/08/2055]',-71.111,-82.833,-44.933,23.053,0.000,-111.355,-79.316,-26.960,40.635,0.000,-111.355,-65.250,0.000,-23.053,-50.403,-76.972,-4.298,0.000,-44.151,24.225,-50.012,-85.568,0.000,44.933,53.529,-32.039,111.746,-50.012
'[17:56:45.973 10/08/2055]',-101.197,-65.641,-38.291,17.192,0.000,-133.236,-69.548,-24.615,39.072,0.000,-104.322,-66.422,0.000,-78.144,-48.059,-75.800,-3.516,0.000,-120.342,45.714,-47.277,-85.568,0.000,38.291,65.250,-26.178,83.223,-47.277
'[17:56:45.977 10/08/2055]',-87.521,-89.084,-35.165,19.536,0.000,-139.096,-53.919,-32.821,32.430,0.000,-91.429,-68.767,0.000,-124.640,-20.317,-75.409,-9.377,0.000,-125.031,16.410,-28.913,-93.382,0.000,35.165,61.343,-27.350,87.521,-28.913
'[17:56:45.980 10/08/2055]',-56.264,-100.806,-37.509,23.834,0.000,-135.580,-24.225,-41.026,29.695,0.000,-80.879,-71.111,0.000,-76.581,-14.457,-73.846,-9.768,0.000,-68.767,22.271,-33.211,-95.726,0.000,37.509,57.436,-19.145,95.726,-33.211
'[17:56:45.984 10/08/2055]',10.549,-84.005,-64.078,17.973,0.000,-81.661,-38.291,-25.788,26.178,0.000,-82.051,-73.846,0.000,-32.821,-21.880,-62.515,-12.112,0.000,12.112,-13.675,-33.211,-94.945,0.000,64.078,53.138,-42.589,85.568,-33.211
'[17:56:45.988 10/08/2055]',10.940,-89.866,-57.436,29.695,0.000,-73.455,-45.324,-19.927,32.430,0.000,-84.005,-72.674,0.000,11.331,-33.211,-65.641,-4.689,0.000,42.198,-26.178,-24.225,-84.786,0.000,57.436,57.436,-30.867,69.548,-24.225
'[17:56:45.992 10/08/2055]',-20.708,-75.018,-49.231,27.741,0.000,-42.979,-57.045,-42.589,24.225,0.000,-84.396,-76.581,0.000,57.436,-47.277,-71.893,-9.768,0.000,45.324,-14.066,-17.582,-85.958,0.000,49.231,34.774,-12.503,73.455,-17.582
'[17:56:45.996 10/08/2055]',-23.053,-47.668,-58.217,23.443,0.000,-74.628,-46.496,-16.801,32.039,0.000,-81.661,-68.376,0.000,27.741,-43.370,-61.734,-7.033,0.000,59.389,-32.430,-25.397,-85.958,0.000,58.217,32.430,-38.681,81.661,-25.397
'[17:56:46.000 10/08/2055]',-2.344,-71.111,-50.794,23.834,0.000,-76.190,-70.330,7.033,38.291,0.000,-71.111,-60.171,0.000,-38.291,-33.211,-50.794,-2.735,0.000,-30.867,44.542,-57.045,-82.833,0.000,50.794,10.549,-44.933,145.739,-57.045
'[17:56:46.004 10/08/2055]',12.112,-70.720,-76.190,27.350,0.000,-135.189,-30.476,19.927,37.118,0.000,-53.138,-52.357,0.000,-52.357,-21.490,-43.370,10.159,0.000,-4.689,105.104,-157.460,-50.012,0.000,76.190,-15.629,-54.701,232.479,-157.460
'[17:56:46.008 10/08/2055]',60.562,-77.753,-79.316,34.774,0.000,-152.381,-3.516,47.668,45.324,0.000,-45.324,-46.105,0.000,-75.018,-29.304,-30.085,21.099,0.000,28.913,99.243,-200.830,-42.198,0.000,79.316,29.304,-47.277,216.068,-200.830
'[17:56:46.012 10/08/2055]',62.906,-56.264,-110.183,44.542,0.000,-103.932,-58.608,56.264,47.277,0.000,-46.496,-49.621,0.000,-22.271,-41.416,-47.668,19.927,0.000,-1.172,155.116,-212.552,-33.993,0.000,110.183,-22.271,-80.098,288.742,-212.552
'[17:56:46.016 10/08/2055]',8.987,-55.482,-86.740,53.919,0.000,-94.554,-59.780,24.225,49.231,0.000,-46.886,-54.701,0.000,30.476,-33.993,-75.409,9.377,0.000,4.689,106.276,-163.712,-17.192,0.000,86.740,0.000,-13.675,166.447,-163.712
'[17:56:46.020 10/08/2055]',26.569,-89.084,-27.350,39.072,0.000,-33.211,-44.151,-5.861,32.821,0.000,-44.933,-57.436,0.000,45.714,-22.662,-71.111,-19.145,0.000,49.231,-40.244,-16.801,-60.171,0.000,27.350,26.569,-16.020,78.926,-16.801
'[17:56:46.023 10/08/2055]',16.410,-71.893,-34.774,27.741,0.000,-8.596,-66.032,-9.768,21.490,0.000,-39.853,-54.701,0.000,51.966,7.424,-70.720,-54.310,0.000,20.317,-66.422,77.753,-98.462,0.000,34.774,-26.569,-32.039,74.237,77.753
'[17:56:46.027 10/08/2055]',49.621,-59.389,-47.277,18.364,0.000,-19.927,-41.026,-2.735,24.225,0.000,-28.523,-44.151,0.000,41.807,5.470,-39.072,-51.966,0.000,62.906,-71.111,39.463,-75.800,0.000,47.277,-56.654,13.284,60.171,39.463
'[17:56:46.031 10/08/2055]',79.707,-57.827,-112.137,43.370,0.000,-83.614,-33.211,35.946,33.602,0.000,-24.225,-38.291,0.000,-8.987,-3.907,-31.258,-39.853,0.000,75.800,-70.330,-10.549,-80.488,0.000,112.137,-34.774,-28.523,102.369,-10.549
'[17:56:46.035 10/08/2055]',8.596,67.204,-193.407,46.496,0.000,-37.509,-89.475,25.006,30.867,0.000,-22.662,-45.324,0.000,47.668,-41.416,-43.761,-44.542,0.000,-36.728,63.297,-19.927,-89.475,0.000,193.407,-132.845,-48.840,159.023,-19.927
'[17:56:46.039 10/08/2055]',91.038,138.706,-255.140,35.946,0.000,30.085,-87.912,44.542,23.053,0.000,-18.755,-34.383,0.000,64.860,-52.357,8.205,-44.542,0.000,158.632,-33.602,-50.794,-97.680,0.000,255.140,-197.705,-0.391,151.600,-50.794
'[17:56:46.043 10/08/2055]',212.161,-59.780,-204.737,60.952,0.000,-78.926,-70.330,100.024,58.217,0.000,-9.377,-25.006,0.000,75.800,-41.807,-8.987,-18.364,0.000,77.363,82.833,-91.429,-63.687,0.000,204.737,-51.966,-133.626,216.459,-91.429
'[17:56:46.047 10/08/2055]',138.315,-39.853,-126.203,34.774,0.000,-23.834,-35.946,31.648,33.602,0.000,-5.861,-35.165,0.000,108.230,-45.714,-32.430,-28.913,0.000,17.192,67.204,-32.821,-51.575,0.000,126.203,-62.125,-82.051,149.255,-32.821
'[17:56:46.051 10/08/2055]',155.507,-82.442,-78.926,14.066,0.000,-4.689,-18.364,12.503,18.364,0.000,7.033,-33.993,0.000,94.945,-10.159,-30.867,-47.668,0.000,-23.443,135.971,-39.463,-67.595,0.000,78.926,-54.701,-68.376,180.513,-39.463
'[17:56:46.055 10/08/2055]',194.188,-193.407,-64.860,34.383,0.000,-171.917,51.966,37.118,51.575,0.000,24.225,-18.364,0.000,-8.596,3.126,-30.085,0.781,0.000,16.801,172.308,-228.962,2.735,0.000,64.860,27.741,-112.918,288.352,-228.962
'[17:56:46.059 10/08/2055]',-4.689,-1.954,-133.626,46.105,0.000,-23.834,-57.827,-57.436,44.933,0.000,7.424,-53.529,0.000,32.039,-14.066,-114.872,-16.410,0.000,-138.706,89.866,-63.687,-0.781,0.000,133.626,-96.899,-11.331,80.879,-63.687
'[17:56:46.063 10/08/2055]',-84.396,52.747,-24.615,-3.907,0.000,128.938,-72.674,-101.587,-14.457,0.000,12.894,-53.529,0.000,44.151,-0.391,-67.595,-61.734,0.000,-25.788,-3.126,30.476,-87.131,0.000,24.615,-100.024,41.807,84.396,30.476
'[17:56:46.066 10/08/2055]',-48.449,75.018,-79.707,20.317,0.000,7.033,15.238,-72.283,15.629,0.000,23.443,-39.463,0.000,4.689,0.000,-50.012,-40.635,0.000,17.192,-114.481,75.018,-64.860,0.000,79.707,-91.429,-4.689,26.960,75.018
'[17:56:46.070 10/08/2055]',-17.973,48.840,-85.177,4.298,0.000,65.250,-52.357,-59.780,-2.735,0.000,9.768,-52.357,0.000,79.316,-33.602,-63.297,-58.217,0.000,-113.309,23.053,102.759,-89.866,0.000,85.177,-105.104,-5.079,16.020,102.759
'[17:56:46.074 10/08/2055]',-21.490,34.383,-30.085,-7.814,0.000,25.397,28.913,-62.906,-17.192,0.000,14.457,-45.714,0.000,59.389,-25.788,-44.542,-52.747,0.000,-60.171,12.503,76.581,-93.382,0.000,30.085,-76.581,-11.331,64.860,76.581
'[17:56:46.078 10/08/2055]',-16.020,1.563,-59.780,19.927,0.000,-41.807,44.542,-66.813,9.377,0.000,8.596,-50.403,0.000,48.840,-26.569,-84.786,-16.410,0.000,-124.249,67.595,6.252,-30.476,0.000,59.780,-58.217,-36.728,69.939,6.252
'[17:56:46.082 10/08/2055]',-112.918,25.397,5.861,3.516,0.000,112.527,-65.641,-109.402,-14.847,0.000,-5.079,-67.204,0.000,84.786,-31.258,-106.276,-37.900,0.000,-168.010,137.143,0.000,-60.952,0.000,-5.861,-60.171,-2.344,114.872,0.000
'[17:56:46.086 10/08/2055]',-96.117,27.741,19.145,-13.675,0.000,115.653,-53.919,-96.899,-26.569,0.000,0.391,-53.529,0.000,11.331,-22.271,-65.641,-37.118,0.000,-91.038,50.012,-10.549,-63.297,0.000,-19.145,-58.217,-11.722,127.375,-10.549
'[17:56:46.090 10/08/2055]',-35.165,9.768,-0.781,-11.331,0.000,37.118,-1.172,-58.608,-14.457,0.000,7.033,-30.476,0.000,-87.131,-23.443,-8.596,-14.457,0.000,-52.357,41.807,-85.177,-39.072,0.000,0.781,-58.217,-14.847,161.758,-85.177
'[17:56:46.094 10/08/2055]',37.118,25.788,-96.117,-1.954,0.000,-71.893,5.861,20.708,9.377,0.000,16.801,-4.298,0.000,-175.824,-38.291,72.674,13.675,0.000,32.039,80.879,-226.227,-15.238,0.000,96.117,-82.833,-57.045,264.518,-226.227
'[17:56:46.098 10/08/2055]',209.817,-54.310,-221.929,14.847,0.000,-283.663,43.761,135.580,51.184,0.000,9.768,16.801,0.000,-224.274,-89.475,103.932,62.906,0.000,202.002,-6.252,-394.628,51.966,0.000,221.929,-55.873,-114.481,282.491,-394.628
'[17:56:46.102 10/08/2055]',57.827,32.821,-133.236,12.112,0.000,-256.703,88.303,99.634,37.509,0.000,-9.768,-5.079,0.000,-14.066,-92.601,2.735,48.840,0.000,0.000,193.797,-327.033,75.409,0.000,133.236,-45.324,-135.189,283.663,-327.033
'[17:56:46.105 10/08/2055]',50.794,44.933,-158.632,37.900,0.000,-98.852,-45.714,67.595,51.575,0.000,-38.681,-20.317,0.000,42.589,-96.899,-25.006,32.821,0.000,-43.761,114.872,-153.944,35.165,0.000,158.632,-75.800,-104.713,151.990,-153.944
'[17:56:46.109 10/08/2055]',11.722,137.534,-171.526,1.954,0.000,49.231,-107.448,32.821,4.298,0.000,-37.900,-33.602,0.000,88.303,-32.821,-61.734,-14.847,0.000,66.032,62.906,-146.129,-5.861,0.000,171.526,-185.983,-98.852,248.889,-146.129
'[17:56:46.113 10/08/2055]',66.032,-30.476,-33.211,-4.689,0.000,26.960,4.298,-27.350,-8.205,0.000,-30.867,-38.291,0.000,85.177,-9.377,-87.131,-22.271,0.000,-134.017,157.851,-46.105,-12.503,0.000,33.211,-116.435,-99.243,214.115,-46.105
'[17:56:46.117 10/08/2055]',62.515,26.178,-150.037,28.523,0.000,79.316,-50.012,-73.455,12.503,0.000,-33.211,-33.211,0.000,-79.316,-13.284,-35.165,11.722,0.000,-22.271,-13.675,-90.256,8.205,0.000,150.037,-241.856,49.231,132.063,-90.256
'[17:56:46.121 10/08/2055]',62.515,43.761,-197.705,3.516,0.000,-46.886,19.145,-48.059,-11.331,0.000,-34.774,-51.575,0.000,-10.549,-1.954,-130.110,-17.973,0.000,-80.879,73.846,-179.731,24.225,0.000,197.705,-250.061,-36.728,229.353,-179.731
'[17:56:46.125 10/08/2055]',-25.006,-23.053,-18.364,-4.298,0.000,-73.846,61.734,-50.012,-9.768,0.000,-37.900,-48.840,0.000,60.562,-38.681,-124.249,-18.755,0.000,-208.254,131.673,-57.436,10.549,0.000,18.364,-128.547,16.020,109.792,-57.436
'[17:56:46.129 10/08/2055]',48.840,-14.457,-8.205,-5.470,0.000,-5.861,53.529,-12.894,-14.066,0.000,-45.714,-38.291,0.000,110.574,-63.297,-86.740,-35.946,0.000,-154.335,125.031,-33.993,-14.066,0.000,8.205,-89.866,-60.171,164.493,-33.993
'[17:56:46.133 10/08/2055]',37.509,23.834,-37.509,1.172,0.000,30.476,-17.973,17.973,-4.689,0.000,-56.264,-42.198,0.000,146.520,-61.343,-98.852,-37.509,0.000,-39.072,41.416,-62.906,7.424,0.000,37.509,-89.866,-50.794,139.096,-62.906
'[17:56:46.137 10/08/2055]',8.596,-47.277,80.098,-10.940,0.000,96.508,-5.861,-39.072,-19.536,0.000,-44.542,-42.198,0.000,138.315,-32.430,-87.521,-40.244,0.000,-64.469,98.462,-60.952,2.735,0.000,-80.098,-5.861,-47.277,154.725,-60.952
'[17:56:46.141 10/08/2055]',10.159,-23.053,42.198,-15.629,0.000,77.753,11.722,-54.310,-20.708,0.000,-49.231,-36.728,0.000,82.833,-76.190,-45.324,-24.615,0.000,-109.792,78.926,-36.728,3.126,0.000,-42.198,-23.053,-49.231,108.230,-36.728
'[17:56:46.145 10/08/2055]',-111.355,95.726,-12.503,-16.410,0.000,139.878,-66.422,-91.429,-25.006,0.000,-56.264,-46.496,0.000,50.012,-17.973,-77.363,-48.840,0.000,-159.414,16.801,86.349,-41.026,0.000,12.503,-168.010,8.987,64.078,86.349
'[17:56:46.148 10/08/2055]',-80.879,124.249,-97.680,-22.662,0.000,2.344,-53.529,-11.331,-14.847,0.000,-39.853,-26.569,0.000,-0.781,1.563,-51.184,-51.575,0.000,-167.228,35.946,87.131,-59.389,0.000,97.680,-228.181,-32.821,105.104,87.131
'[17:56:46.152 10/08/2055]',0.781,39.853,-77.363,-7.033,0.000,-62.906,-32.039,47.668,3.516,0.000,-41.026,-11.331,0.000,11.722,-39.463,-12.503,-29.695,0.000,-107.448,104.322,-33.993,-34.383,0.000,77.363,-147.302,-89.084,214.505,-33.993
'[17:56:46.156 10/08/2055]',33.211,25.397,-82.833,11.722,0.000,25.788,-82.051,28.523,14.457,0.000,-56.264,-21.099,0.000,34.774,-27.350,-47.277,-19.927,0.000,73.065,-39.463,-101.978,6.252,0.000,82.833,-144.176,-72.283,232.479,-101.978
'[17:56:46.160 10/08/2055]',-48.449,98.071,-56.654,9.768,0.000,90.647,-84.005,-8.205,5.079,0.000,-58.608,-41.416,0.000,150.427,-33.602,-109.011,-30.085,0.000,-82.051,157.460,-129.328,30.476,0.000,56.654,-114.090,-53.919,207.473,-129.328
'[17:56:46.164 10/08/2055]',-81.661,38.291,76.972,-16.410,0.000,170.745,-19.145,-106.276,-26.569,0.000,-75.018,-62.515,0.000,209.035,-102.759,-122.686,-26.569,0.000,-129.719,188.718,-156.288,52.357,0.000,-76.972,-33.993,23.834,150.037,-156.288
'[17:56:46.168 10/08/2055]',-86.349,52.747,59.389,-28.913,0.000,206.300,-48.059,-119.170,-41.026,0.000,-81.270,-75.018,0.000,223.101,-60.562,-149.255,-58.608,0.000,-169.182,154.335,-30.085,-1.954,0.000,-59.389,-82.833,3.516,123.077,-30.085
'[17:56:46.172 10/08/2055]',-40.635,112.527,-36.728,-34.774,0.000,118.779,-25.397,-61.343,-31.258,0.000,-61.734,-58.999,0.000,154.725,-23.834,-98.462,-57.827,0.000,-130.110,143.785,-11.722,-28.913,0.000,36.728,-167.228,-14.066,142.222,-11.722
'[17:56:46.176 10/08/2055]',46.105,8.205,-20.708,-34.383,0.000,-22.662,34.383,0.000,-12.503,0.000,-50.403,-41.026,0.000,61.734,-60.952,-46.496,-8.987,0.000,19.536,52.357,-170.354,41.026,0.000,20.708,-71.893,-23.443,157.070,-170.354
'[17:56:46.180 10/08/2055]',45.324,2.344,-69.158,-20.708,0.000,-41.807,-14.847,20.708,-5.861,0.000,-50.794,-46.105,0.000,48.840,-30.867,-72.674,-12.112,0.000,1.172,160.195,-283.663,52.747,0.000,69.158,-78.926,-99.243,304.762,-283.663
'[17:56:46.184 10/08/2055]',-34.774,82.833,-52.357,-16.801,0.000,-19.145,32.821,-23.053,-11.331,0.000,-38.681,-43.370,0.000,12.503,-23.443,-57.045,-5.079,0.000,-13.284,68.767,-193.797,62.906,0.000,52.357,-85.177,-92.210,225.836,-193.797
'[17:56:46.188 10/08/2055]',-88.303,55.482,1.954,-17.192,0.000,48.449,-9.768,-63.687,-21.880,0.000,-40.244,-50.794,0.000,54.310,-52.357,-73.455,-4.298,0.000,-90.647,93.773,-166.838,86.349,0.000,-1.954,-50.794,-39.463,137.143,-166.838
'[17:56:46.191 10/08/2055]',-110.965,77.363,22.271,-27.741,0.000,130.110,-14.066,-110.574,-43.370,0.000,-52.747,-62.125,0.000,127.375,-82.051,-89.475,-26.178,0.000,-225.055,146.129,-40.635,46.886,0.000,-22.271,-50.012,-56.264,82.833,-40.635
'[17:56:46.195 10/08/2055]',-45.714,75.409,-33.211,-13.675,0.000,159.805,-32.430,-107.839,-35.556,0.000,-47.668,-53.529,0.000,147.302,-55.482,-67.204,-31.258,0.000,-175.433,73.846,92.210,-0.781,0.000,33.211,-100.806,-73.065,35.165,92.210
'[17:56:46.199 10/08/2055]',-32.821,38.681,29.695,-35.946,0.000,150.037,-25.006,-85.958,-38.291,0.000,-38.681,-44.933,0.000,154.725,-40.635,-66.032,-11.722,0.000,-84.396,30.867,68.376,18.364,0.000,-29.695,-67.204,-10.940,-16.020,68.376
'[17:56:46.203 10/08/2055]',-7.033,46.496,1.563,-32.430,0.000,111.355,-5.079,-69.939,-26.569,0.000,-37.900,-41.026,0.000,133.626,-48.449,-71.111,2.344,0.000,-81.270,50.403,21.490,23.053,0.000,-1.563,-66.422,-71.111,56.264,21.490
'[17:56:46.207 10/08/2055]',-27.741,54.701,6.252,-26.960,0.000,122.295,-35.165,-61.734,-17.973,0.000,-33.211,-37.509,0.000,77.363,-27.350,-75.018,20.708,0.000,-88.303,67.985,-33.993,48.059,0.000,-6.252,-72.283,-86.740,115.653,-33.993
'[17:56:46.211 10/08/2055]',-16.020,42.979,22.271,-38.681,0.000,107.057,1.563,-66.813,-30.476,0.000,-24.225,-38.681,0.000,51.575,-23.834,-81.661,13.284,0.000,-96.508,30.867,-24.615,48.449,0.000,-22.271,-76.190,-34.383,61.343,-24.615
'[17:56:46.215 10/08/2055]',-14.457,71.111,-7.424,-41.416,0.000,92.601,-7.424,-49.621,-28.523,0.000,-21.880,-34.383,0.000,33.602,-38.291,-66.032,10.549,0.000,-112.527,26.569,-9.377,33.211,0.000,7.424,-71.893,-85.177,77.363,-9.377
'[17:56:46.219 10/08/2055]',-58.608,75.018,-3.126,-30.476,0.000,85.958,-21.099,-58.608,-23.443,0.000,-19.536,-32.821,0.000,53.529,-25.788,-64.860,15.629,0.000,-104.713,42.979,-4.298,41.807,0.000,3.126,-55.873,-48.840,33.993,-4.298
'[17:56:46.223 10/08/2055]',-47.668,65.641,-0.781,-39.463,0.000,80.488,-6.252,-64.860,-31.258,0.000,-15.238,-28.132,0.000,55.482,-13.675,-47.668,5.470,0.000,-38.681,31.648,-21.880,26.569,0.000,0.781,-58.608,-32.821,48.449,-21.880
'[17:56:46.227 10/08/2055]',-58.608,61.734,-17.192,-32.430,0.000,40.244,-14.457,-55.873,-15.629,0.000,-14.847,-22.662,0.000,30.476,3.126,-43.761,16.020,0.000,-43.761,20.317,4.689,22.271,0.000,17.192,-53.529,-63.297,39.853,4.689
'[17:56:46.230 10/08/2055]',-51.575,45.324,-19.536,-25.006,0.000,33.993,-17.973,-58.608,-8.205,0.000,-16.801,-22.271,0.000,23.053,-1.954,-58.608,23.053,0.000,-124.640,57.436,16.020,35.556,0.000,19.536,-31.648,-85.958,22.271,16.020
'[17:56:46.234 10/08/2055]',-8.205,48.840,-33.602,-37.900,0.000,62.906,-23.053,-53.529,-16.801,0.000,-18.755,-21.490,0.000,4.298,-19.145,-53.138,27.741,0.000,-102.759,100.806,-89.084,50.012,0.000,33.602,-50.794,-100.806,117.998,-89.084
'[17:56:46.238 10/08/2055]',34.774,27.741,-55.873,-33.993,0.000,56.654,-41.807,-31.648,-10.549,0.000,-23.443,-22.662,0.000,27.741,-35.946,-66.422,42.979,0.000,-120.733,145.739,-135.580,76.972,0.000,55.873,-62.515,-90.256,114.481,-135.580
'[17:56:46.242 10/08/2055]',17.582,25.397,-34.383,-28.132,0.000,57.436,-33.211,-34.774,-8.205,0.000,-23.443,-16.020,0.000,42.979,-40.244,-58.217,53.919,0.000,-63.297,104.322,-135.580,92.210,0.000,34.383,-11.331,-93.773,81.270,-135.580
'[17:56:46.246 10/08/2055]',-7.814,42.198,-13.284,-31.258,0.000,105.885,-35.946,-61.734,-17.582,0.000,-28.523,-16.410,0.000,36.728,-42.198,-60.952,59.389,0.000,14.066,134.017,-290.696,132.845,0.000,13.284,-6.642,0.000,111.355,-290.696
'[17:56:46.250 10/08/2055]',-6.252,27.741,-25.788,-25.788,0.000,70.330,-51.966,-33.211,-14.847,0.000,-30.085,-10.159,0.000,31.648,-26.569,-51.575,25.788,0.000,-51.184,29.304,-61.734,61.734,0.000,25.788,-2.344,-16.410,-33.211,-61.734
'[17:56:46.254 10/08/2055]',-23.053,27.350,-10.549,-13.284,0.000,60.952,-13.675,-58.217,-8.596,0.000,-17.192,1.172,0.000,7.033,-1.954,-25.006,12.503,0.000,-91.429,-75.018,166.447,-7.814,0.000,10.549,10.940,-37.900,-139.878,166.447
'[17:56:46.258 10/08/2055]',-25.788,27.741,-16.410,-20.317,0.000,42.589,-19.927,-48.059,-9.768,0.000,-14.066,5.470,0.000,-16.020,3.907,-15.238,13.675,0.000,-78.535,-81.661,157.460,-10.549,0.000,16.410,4.689,-20.317,-147.692,157.460
'[17:56:46.262 10/08/2055]',-3.907,17.582,-28.523,-13.284,0.000,24.225,-27.741,-27.741,1.954,0.000,-7.424,11.331,0.000,-8.987,-2.735,5.079,22.271,0.000,-64.860,-53.529,145.739,-12.894,0.000,28.523,-8.596,-53.138,-96.508,145.739
'[17:56:46.266 10/08/2055]',-5.470,13.675,-23.834,-6.252,0.000,24.615,-21.099,-33.602,6.642,0.000,-1.954,8.987,0.000,22.271,-1.172,-9.768,40.244,0.000,-54.310,21.490,68.376,14.066,0.000,23.834,2.735,-73.065,-28.523,68.376
'[17:56:46.270 10/08/2055]',-12.112,12.112,-16.410,-8.987,0.000,33.993,-21.490,-41.807,2.735,0.000,0.000,7.033,0.000,-6.642,-5.470,-2.735,53.529,0.000,16.410,12.894,-35.165,42.589,0.000,16.410,16.801,-38.291,0.000,-35.165
'[17:56:46.273 10/08/2055]',-10.549,3.907,-15.238,-3.126,0.000,46.105,-35.946,-39.072,3.126,0.000,-0.781,3.907,0.000,-0.781,-16.020,-3.907,49.231,0.000,-37.900,64.469,-43.370,43.370,0.000,15.238,23.443,-37.118,6.642,-43.370
'[17:56:46.277 10/08/2055]',-21.490,-4.298,-6.252,3.907,0.000,27.741,-26.569,-36.728,6.252,0.000,5.079,5.861,0.000,6.642,8.205,-12.894,41.807,0.000,-57.045,39.463,35.946,23.834,0.000,6.252,31.258,-50.794,-22.271,35.946
'[17:56:46.281 10/08/2055]',0.000,-12.894,-22.271,3.907,0.000,21.099,-22.271,-31.648,1.563,0.000,12.503,11.331,0.000,-14.066,17.973,2.344,39.463,0.000,-54.701,28.913,60.171,10.159,0.000,22.271,21.490,-60.952,-23.443,60.171
'[17:56:46.285 10/08/2055]',26.569,-32.821,-25.006,6.642,0.000,19.145,-28.913,-21.099,6.252,0.000,17.973,14.457,0.000,-32.821,27.350,12.894,39.853,0.000,-62.125,29.695,61.343,17.973,0.000,25.006,32.821,-91.038,-14.066,61.343
'[17:56:46.289 10/08/2055]',34.383,-36.337,-27.350,15.629,0.000,15.238,-24.615,-18.364,13.675,0.000,19.536,15.238,0.000,-42.979,26.178,21.099,46.496,0.000,-41.026,44.151,23.443,23.443,0.000,27.350,38.291,-98.071,18.755,23.443
'[17:56:46.293 10/08/2055]',48.059,-54.310,-35.946,13.675,0.000,-9.768,-14.066,-13.284,8.205,0.000,20.708,16.410,0.000,-60.952,24.615,22.271,46.886,0.000,-28.913,46.105,-7.033,22.271,0.000,35.946,35.556,-87.521,37.509,-7.033
'[17:56:46.297 10/08/2055]',-3.516,-42.198,-10.159,19.145,0.000,3.126,-33.211,-20.708,14.066,0.000,17.973,15.238,0.000,-67.985,3.126,30.476,60.171,0.000,-62.906,68.767,-15.238,34.774,0.000,10.159,51.184,-88.303,45.324,-15.238
'[17:56:46.301 10/08/2055]',-26.178,-37.118,7.424,16.410,0.000,7.424,-30.476,-26.178,9.768,0.000,20.708,14.457,0.000,-59.780,26.960,11.722,49.231,0.000,-80.488,69.548,10.549,27.350,0.000,-7.424,40.244,-53.138,15.629,10.549
'[17:56:46.305 10/08/2055]',-1.954,-40.635,-12.503,14.847,0.000,-34.774,-22.271,7.814,8.987,0.000,29.695,23.834,0.000,-58.608,34.774,19.927,51.966,0.000,-49.231,71.111,-1.563,28.132,0.000,12.503,25.397,-39.072,12.894,-1.563
'[17:56:46.309 10/08/2055]',10.940,-45.324,-17.582,18.755,0.000,-39.463,-32.821,22.271,16.801,0.000,39.853,29.695,0.000,-69.548,38.291,24.225,63.297,0.000,-48.840,87.521,-35.165,53.138,0.000,17.582,41.807,-49.231,11.722,-35.165
'[17:56:46.313 10/08/2055]',7.424,-33.602,-19.536,10.940,0.000,-28.523,-33.993,18.755,9.377,0.000,49.621,30.085,0.000,-93.773,48.840,33.211,56.654,0.000,-10.549,53.138,-41.026,44.151,0.000,19.536,48.059,-55.482,13.284,-41.026
'[17:56:46.316 10/08/2055]',42.589,-80.879,-28.913,16.410,0.000,-85.958,-19.927,40.635,14.847,0.000,55.482,35.165,0.000,-108.230,50.403,27.350,62.515,0.000,35.556,16.801,-74.237,53.919,0.000,28.913,70.330,-55.092,7.814,-74.237
'[17:56:46.320 10/08/2055]',-12.894,-58.217,21.880,12.894,0.000,-48.059,6.642,-3.907,10.159,0.000,64.469,35.946,0.000,-107.057,57.436,24.615,64.860,0.000,-14.847,88.694,-91.819,57.827,0.000,-21.880,82.442,-40.635,30.867,-91.819
'[17:56:46.324 10/08/2055]',-30.867,-36.337,34.774,7.424,0.000,-15.629,1.954,-12.112,2.344,0.000,57.827,34.383,0.000,-95.726,28.523,33.993,59.389,0.000,-37.509,103.932,-83.223,43.761,0.000,-34.774,49.231,-28.132,56.264,-83.223
'[17:56:46.328 10/08/2055]',32.821,-73.846,26.569,13.675,0.000,-42.198,9.377,21.490,10.940,0.000,59.389,44.933,0.000,-120.342,55.482,34.774,55.482,0.000,-24.225,25.006,-11.722,35.946,0.000,-26.569,55.092,-21.490,-23.053,-11.722
'[17:56:46.332 10/08/2055]',19.536,-39.463,25.006,10.549,0.000,-37.509,12.112,33.993,7.424,0.000,65.641,51.184,0.000,-130.110,44.151,57.827,53.138,0.000,-40.244,86.349,-62.906,42.198,0.000,-25.006,38.681,-10.940,27.741,-62.906
'[17:56:46.336 10/08/2055]',8.596,-12.503,-10.159,14.066,0.000,-4.298,-53.919,49.621,8.205,0.000,56.264,46.886,0.000,-125.031,26.960,55.482,41.416,0.000,-73.455,71.893,-30.085,31.258,0.000,10.159,24.615,-35.165,16.020,-30.085
'[17:56:46.340 10/08/2055]',9.377,-51.575,7.814,10.159,0.000,-33.993,-28.913,37.900,1.172,0.000,59.389,47.277,0.000,-139.096,64.078,48.449,21.880,0.000,-0.781,-99.634,98.852,-1.954,0.000,-7.814,62.515,-32.430,-97.680,98.852
'[17:56:46.344 10/08/2055]',-17.973,-44.933,57.827,-0.781,0.000,-10.940,17.192,0.000,-12.894,0.000,61.343,48.840,0.000,-110.574,50.794,68.767,9.377,0.000,-53.529,-13.675,111.355,-23.443,0.000,-57.827,79.707,-9.768,-91.038,111.355
'[17:56:46.348 10/08/2055]',8.205,-45.714,52.357,-17.192,0.000,-33.602,31.648,17.973,-17.973,0.000,58.608,55.092,0.000,-98.852,77.753,66.032,5.470,0.000,30.867,-64.078,102.759,-17.973,0.000,-52.357,75.800,-16.410,-99.243,102.759
'[17:56:46.352 10/08/2055]',0.000,-51.966,64.078,-18.755,0.000,-41.807,34.774,18.755,-18.364,0.000,44.933,51.184,0.000,-61.734,58.217,54.701,-1.563,0.000,39.463,-79.316,117.607,-28.523,0.000,-64.078,57.045,-10.159,-89.084,117.607
'[17:56:46.355 10/08/2055]',24.225,-73.065,56.654,-17.973,0.000,-87.521,55.873,33.993,-12.894,0.000,42.979,54.701,0.000,-68.376,71.502,35.165,10.159,0.000,-32.430,48.059,35.946,-2.344,0.000,-56.654,60.171,-48.059,-5.470,35.946
'[17:56:46.359 10/08/2055]',-53.138,24.225,29.695,-24.615,0.000,-26.178,-18.364,38.291,-16.801,0.000,34.383,51.966,0.000,-88.303,53.919,33.993,16.801,0.000,-25.397,36.728,-9.768,16.020,0.000,-29.695,21.880,-15.629,-2.735,-9.768
'[17:56:46.363 10/08/2055]',-59.389,-17.192,31.648,3.907,0.000,-42.198,-23.053,24.225,0.391,0.000,25.788,46.105,0.000,-83.614,38.681,15.238,25.788,0.000,-88.303,54.310,17.973,12.112,0.000,-31.648,30.867,-44.933,22.271,17.973
'[17:56:46.367 10/08/2055]',-32.039,-27.350,35.165,0.781,0.000,-30.476,-9.768,19.145,-2.344,0.000,29.304,47.668,0.000,-89.866,45.324,17.973,29.695,0.000,-43.370,23.443,3.516,21.099,0.000,-35.165,53.919,-17.582,-18.364,3.516
'[17:56:46.371 10/08/2055]',-1.563,-16.020,23.834,-17.582,0.000,-12.894,-3.126,19.145,-14.066,0.000,24.225,43.761,0.000,-93.773,11.722,43.370,18.364,0.000,-58.999,-17.973,51.575,5.470,0.000,-23.834,43.761,11.722,-96.899,51.575
'[17:56:46.375 10/08/2055]',25.006,-51.184,14.847,-13.675,0.000,-30.085,-33.993,44.151,-4.298,0.000,17.192,35.556,0.000,-98.462,12.503,35.946,10.549,0.000,-67.985,16.020,8.596,4.689,0.000,-14.847,51.184,-31.648,-23.834,8.596
'[17:56:46.379 10/08/2055]',1.954,-48.840,47.277,-31.648,0.000,-33.211,-9.377,24.615,-12.503,0.000,11.331,29.304,0.000,-107.839,2.344,36.728,12.112,0.000,-65.250,82.833,-89.866,17.192,0.000,-47.277,64.078,-21.880,45.324,-89.866
'[17:56:46.383 10/08/2055]',-44.933,-28.132,46.496,-36.728,0.000,-45.324,-10.549,8.205,-14.457,0.000,7.424,20.317,0.000,-130.110,10.549,8.987,24.225,0.000,-113.309,125.812,-139.487,41.807,0.000,-46.496,52.357,-25.788,79.707,-139.487
'[17:56:46.387 10/08/2055]',-95.336,-11.722,42.979,-32.039,0.000,-51.184,-15.238,-8.205,-19.145,0.000,0.000,12.112,0.000,-116.825,10.549,-5.079,15.629,0.000,-107.839,57.045,-76.581,31.648,0.000,-42.979,60.562,-33.993,24.225,-76.581
'[17:56:46.391 10/08/2055]',-78.144,-20.317,15.629,-26.569,0.000,-92.601,-3.126,4.689,-17.192,0.000,-0.391,18.364,0.000,-123.468,28.132,-6.252,10.549,0.000,-69.548,7.814,-28.523,0.781,0.000,-15.629,38.681,-36.337,14.066,-28.523
'[17:56:46.395 10/08/2055]',-70.720,-9.377,5.861,-32.821,0.000,-67.204,-11.331,1.954,-30.476,0.000,0.781,16.020,0.000,-100.806,51.966,-20.317,-9.768,0.000,-53.919,-68.767,53.138,-10.159,0.000,-5.861,28.523,-5.470,-93.382,53.138
'[17:56:46.398 10/08/2055]',-71.893,22.662,-19.145,-28.523,0.000,-70.720,-10.549,15.238,-30.867,0.000,3.516,22.271,0.000,-109.402,51.184,-2.344,-24.615,0.000,-49.231,-100.415,110.574,-46.105,0.000,19.145,17.192,-22.662,-101.978,110.574
'[17:56:46.402 10/08/2055]',-24.615,-0.781,-10.940,-28.132,0.000,-64.078,-13.284,37.900,-25.397,0.000,8.987,29.304,0.000,-107.057,44.542,4.298,-20.708,0.000,-36.728,-52.747,56.264,-44.542,0.000,10.940,24.615,-29.304,-45.324,56.264
'[17:56:46.406 10/08/2055]',-16.410,-1.172,13.675,-20.708,0.000,-52.747,14.457,30.085,-17.192,0.000,3.907,31.258,0.000,-83.223,23.834,-5.861,0.000,0.000,7.814,27.741,-102.369,0.781,0.000,-13.675,60.562,-52.747,79.707,-102.369
'[17:56:46.410 10/08/2055]',-69.548,21.880,30.476,-3.907,0.000,-14.847,30.476,-24.615,-10.549,0.000,3.126,23.443,0.000,-50.403,-3.126,-14.066,11.722,0.000,-68.376,44.542,-55.482,23.053,0.000,-30.476,42.198,-19.536,12.894,-55.482
'[17:56:46.414 10/08/2055]',-52.747,-1.172,31.648,-5.470,0.000,-5.079,7.814,-17.192,-13.284,0.000,3.126,19.536,0.000,-28.913,-23.443,-6.642,7.033,0.000,-77.753,83.614,-70.330,10.940,0.000,-31.648,59.780,-23.443,22.662,-70.330
'[17:56:46.418 10/08/2055]',-37.900,-27.350,27.741,-5.470,0.000,-41.416,10.159,2.735,-14.847,0.000,-0.781,14.457,0.000,-31.648,-17.192,-19.145,0.000,0.000,-102.369,78.926,-51.575,5.470,0.000,-27.741,54.310,-5.470,-6.252,-51.575
'[17:56:46.422 10/08/2055]',-56.654,-16.410,10.940,1.172,0.000,-65.641,11.722,3.126,-9.377,0.000,5.079,15.629,0.000,-65.641,-0.781,-8.205,-0.781,0.000,-103.150,33.993,-15.629,7.033,0.000,-10.940,33.602,20.708,-64.469,-15.629
'[17:56:46.426 10/08/2055]',-54.701,-15.238,-7.814,-2.735,0.000,-119.951,12.503,37.118,-10.940,0.000,8.205,17.192,0.000,-80.879,0.781,1.172,-2.344,0.000,-84.396,7.814,11.331,-15.238,0.000,7.814,32.430,0.000,-57.436,11.331
'[17:56:46.430 10/08/2055]',-20.708,-21.880,-9.377,-0.781,0.000,-144.957,35.556,60.171,-4.689,0.000,12.894,22.662,0.000,-91.429,30.085,-13.284,10.159,0.000,-72.674,7.424,5.079,-4.298,0.000,9.377,15.629,10.549,-50.403,5.079
'[17:56:46.434 10/08/2055]',-41.026,28.913,-1.563,1.563,0.000,-66.422,53.138,5.079,-2.344,0.000,14.457,17.582,0.000,-91.429,17.582,-15.629,34.383,0.000,-27.350,4.689,-69.158,37.509,0.000,1.563,0.391,-1.172,12.112,-69.158
'[17:56:46.438 10/08/2055]',-68.767,30.085,32.821,-4.298,0.000,10.549,5.079,-12.894,-12.503,0.000,8.205,9.377,0.000,-48.840,-10.940,-6.642,26.569,0.000,-35.556,61.343,-75.018,8.987,0.000,-32.821,32.039,-22.662,63.687,-75.018
'[17:56:46.441 10/08/2055]',-33.993,33.602,8.596,-1.954,0.000,16.020,2.735,0.000,-10.940,0.000,7.424,8.987,0.000,-30.476,-9.377,-21.490,32.039,0.000,-6.252,54.701,-110.574,32.430,0.000,-8.596,-0.781,19.145,41.026,-110.574
'[17:56:46.445 10/08/2055]',-5.470,-4.298,40.244,-8.205,0.000,29.304,14.457,-5.079,-16.020,0.000,4.689,9.377,0.000,-32.430,-14.847,-7.033,26.960,0.000,35.556,1.563,-103.932,37.900,0.000,-40.244,49.231,28.913,-5.861,-103.932
'[17:56:46.449 10/08/2055]',1.172,-6.252,33.602,-1.954,0.000,-3.907,24.225,15.238,-8.596,0.000,6.252,15.629,0.000,-10.159,-14.847,16.410,5.079,0.000,-21.880,18.364,1.954,-1.563,0.000,-33.602,53.919,-17.973,-28.913,1.954
'[17:56:46.453 10/08/2055]',-36.728,8.596,27.741,0.391,0.000,-41.026,36.337,12.894,-6.642,0.000,12.503,19.536,0.000,-38.681,-0.781,26.960,4.689,0.000,-10.549,-86.740,91.819,-2.344,0.000,-27.741,44.151,24.615,-145.739,91.819
'[17:56:46.457 10/08/2055]',-26.178,-20.317,39.853,-2.344,0.000,-69.548,64.860,6.642,-11.722,0.000,17.582,13.284,0.000,-19.536,19.927,0.391,-8.205,0.000,-98.852,-5.861,120.342,-22.662,0.000,-39.853,53.529,-14.847,-103.541,120.342
'[17:56:46.461 10/08/2055]',-55.092,11.331,22.662,3.126,0.000,-40.635,27.741,0.391,-3.126,0.000,17.973,10.940,0.000,-14.457,10.159,2.735,-3.126,0.000,-49.621,-26.178,98.071,-26.960,0.000,-22.662,39.072,-30.867,-59.780,98.071
'[17:56:46.465 10/08/2055]',-44.151,7.814,17.192,-1.563,0.000,-32.430,19.927,-1.172,-6.252,0.000,16.410,10.940,0.000,-24.225,-19.145,18.755,13.284,0.000,-25.397,11.331,1.172,1.172,0.000,-17.192,33.993,-16.020,-10.159,1.172
'[17:56:46.469 10/08/2055]',1.563,-1.172,5.470,-6.252,0.000,-50.403,49.231,5.079,-3.907,0.000,20.708,7.814,0.000,-11.331,28.132,-24.615,13.675,0.000,14.457,24.615,-60.171,26.569,0.000,-5.470,22.662,-30.085,32.039,-60.171
'[17:56:46.473 10/08/2055]',40.635,0.000,-23.443,-2.735,0.000,-68.767,28.132,44.151,10.940,0.000,13.675,14.457,0.000,-26.960,25.006,-6.642,19.927,0.000,38.291,1.563,-56.654,27.741,0.000,23.443,21.490,-39.463,8.205,-56.654
'[17:56:46.477 10/08/2055]',-3.126,22.662,-9.377,-13.284,0.000,-45.714,13.675,28.523,-0.391,0.000,9.768,12.112,0.000,-25.397,14.066,5.861,15.238,0.000,-1.172,60.562,-73.065,25.397,0.000,9.377,3.516,-21.880,38.291,-73.065
'[17:56:46.480 10/08/2055]',-16.020,7.424,-13.284,-8.596,0.000,-38.681,-12.894,17.192,2.344,0.000,10.940,5.470,0.000,-45.324,49.621,-14.847,17.192,0.000,24.225,4.689,-42.198,20.317,0.000,13.284,3.126,4.689,-3.907,-42.198
'[17:56:46.484 10/08/2055]',-36.337,-19.145,32.821,-6.252,0.000,-35.946,-11.331,16.801,1.172,0.000,1.954,1.172,0.000,-3.126,14.066,-18.755,11.331,0.000,-67.985,58.608,31.648,-17.973,0.000,-32.821,54.701,-5.861,-20.317,31.648
'[17:56:46.488 10/08/2055]',-59.389,3.516,40.635,-10.159,0.000,17.973,-16.020,-19.145,-6.642,0.000,2.735,1.563,0.000,-19.927,-29.695,16.020,28.913,0.000,-18.364,130.110,-121.905,5.079,0.000,-40.635,50.012,-5.079,122.295,-121.905
'[17:56:46.492 10/08/2055]',-41.026,-11.722,46.496,-12.112,0.000,0.000,8.987,-19.927,-7.814,0.000,4.298,-0.781,0.000,7.814,14.457,-20.317,8.987,0.000,-42.589,26.569,31.648,-4.298,0.000,-46.496,78.535,-32.039,-21.490,31.648
'[17:56:46.496 10/08/2055]',-6.252,-34.383,42.589,-3.907,0.000,-52.357,52.747,-6.252,3.516,0.000,8.596,12.112,0.000,-14.066,37.900,-9.377,5.470,0.000,12.112,-80.879,105.885,-16.801,0.000,-42.589,83.614,-60.562,-55.482,105.885
'[17:56:46.500 10/08/2055]',-6.642,9.377,13.675,-12.112,0.000,-12.503,30.867,-10.159,-2.735,0.000,8.205,18.755,0.000,-7.033,39.072,15.629,0.000,0.000,27.350,-12.503,46.496,-13.284,0.000,-13.675,15.629,-10.940,-23.834,46.496
'[17:56:46.504 10/08/2055]',28.132,-6.642,-8.205,-5.861,0.000,-43.761,17.192,25.397,6.642,0.000,7.424,28.523,0.000,-5.861,50.794,16.410,6.642,0.000,42.589,-73.846,118.388,-17.973,0.000,8.205,10.159,-33.993,-76.190,118.388
'[17:56:46.508 10/08/2055]',5.470,-30.476,22.271,4.298,0.000,-47.668,28.132,7.424,14.066,0.000,2.344,32.430,0.000,-49.621,32.430,25.006,31.258,0.000,36.728,-28.132,16.020,14.847,0.000,-22.271,30.476,5.079,-26.178,16.020
'[17:56:46.512 10/08/2055]',-49.621,5.861,31.258,-1.563,0.000,-5.470,-20.708,9.768,3.516,0.000,-5.470,24.225,0.000,-33.602,-3.126,19.536,40.244,0.000,4.298,85.568,-102.369,35.165,0.000,-31.258,45.324,26.178,36.337,-102.369
'[17:56:46.516 10/08/2055]',-67.204,24.225,32.430,-4.689,0.000,-16.020,-11.331,13.284,-0.781,0.000,-3.126,20.708,0.000,-39.072,13.675,-8.596,32.430,0.000,-61.734,40.244,-8.596,28.523,0.000,-32.430,42.589,-12.894,-8.596,-8.596
'[17:56:46.520 10/08/2055]',-41.026,0.000,39.463,-1.954,0.000,-36.337,21.490,8.987,1.954,0.000,5.470,28.132,0.000,-67.595,29.304,-0.781,33.602,0.000,-57.436,-4.298,41.416,15.238,0.000,-39.463,55.873,-28.913,-31.258,41.416
'[17:56:46.523 10/08/2055]',-50.012,28.913,15.238,3.907,0.000,-48.449,16.801,20.708,9.377,0.000,5.079,35.165,0.000,-53.529,37.118,5.470,38.291,0.000,-26.569,-13.675,50.794,17.582,0.000,-15.238,34.774,-0.391,-70.330,50.794
'[17:56:46.527 10/08/2055]',3.907,36.728,-13.675,1.563,0.000,-53.919,31.648,41.416,8.596,0.000,7.814,44.151,0.000,-28.132,19.927,36.728,36.728,0.000,31.648,-40.635,91.038,-15.629,0.000,13.675,-10.159,-20.708,-39.072,91.038
'[17:56:46.531 10/08/2055]',56.264,-31.648,12.112,15.238,0.000,-73.846,55.092,43.761,26.178,0.000,7.424,50.012,0.000,19.145,-7.424,47.668,61.734,0.000,73.065,21.880,11.722,12.894,0.000,-12.112,45.324,-59.389,30.867,11.722
'[17:56:46.535 10/08/2055]',10.549,21.880,8.205,22.271,0.000,-12.112,46.886,5.470,22.662,0.000,5.079,39.853,0.000,26.178,-4.298,43.370,60.952,0.000,223.101,-30.476,-98.852,32.821,0.000,-8.205,39.853,13.284,51.184,-98.852
'[17:56:46.539 10/08/2055]',13.675,5.079,37.509,12.112,0.000,16.020,44.542,0.391,7.033,0.000,9.768,23.443,0.000,53.529,32.430,-1.563,35.556,0.000,108.620,-40.244,33.602,18.364,0.000,-37.509,37.900,-23.443,-5.079,33.602
'[17:56:46.543 10/08/2055]',25.397,-9.768,43.370,14.847,0.000,32.821,14.847,12.894,12.112,0.000,17.192,24.225,0.000,14.066,13.675,37.509,32.430,0.000,98.852,-83.614,91.038,-7.033,0.000,-43.370,58.608,-32.430,-33.993,91.038
'[17:56:46.547 10/08/2055]',0.000,29.304,-1.954,29.695,0.000,-0.391,14.457,20.317,22.662,0.000,22.271,18.364,0.000,1.563,51.575,1.172,17.582,0.000,57.045,-139.096,168.791,-12.503,0.000,1.954,28.523,-21.490,-115.263,168.791
'[17:56:46.551 10/08/2055]',-9.377,22.662,0.000,26.178,0.000,6.252,-20.708,31.258,22.662,0.000,27.350,17.973,0.000,-3.516,43.761,14.847,17.192,0.000,-44.542,20.708,118.388,-20.317,0.000,0.000,12.112,-12.503,-46.105,118.388
'[17:56:46.555 10/08/2055]',20.317,-19.145,8.205,31.648,0.000,-36.337,5.861,38.291,33.211,0.000,31.258,19.536,0.000,-9.377,17.582,25.006,36.337,0.000,-6.252,11.331,56.264,8.596,0.000,-8.205,57.436,-31.648,-32.039,56.264
'[17:56:46.559 10/08/2055]',-5.861,42.979,-8.987,36.337,0.000,5.079,20.317,2.344,35.165,0.000,35.556,13.284,0.000,14.457,13.284,16.801,46.105,0.000,23.053,127.375,-100.024,42.198,0.000,8.987,24.225,-16.020,86.349,-100.024
'[17:56:46.563 10/08/2055]',24.225,-0.391,26.960,32.039,0.000,17.192,39.853,-3.907,30.476,0.000,41.416,12.112,0.000,0.000,34.774,23.053,50.403,0.000,82.833,53.919,-89.866,61.734,0.000,-26.960,39.853,7.033,48.059,-89.866
'[17:56:46.566 10/08/2055]',57.045,0.391,6.642,25.397,0.000,13.675,33.602,17.582,23.443,0.000,44.542,7.033,0.000,26.178,-2.735,36.728,54.310,0.000,101.197,-19.145,-26.178,59.389,0.000,-6.642,14.457,-19.145,15.629,-26.178
'[17:56:46.570 10/08/2055]',22.271,54.701,-19.927,33.993,0.000,30.476,1.563,23.834,34.774,0.000,48.840,-0.781,0.000,37.118,-12.112,37.118,45.324,0.000,61.734,17.192,-4.298,33.211,0.000,19.927,-29.695,-9.377,36.337,-4.298
'[17:56:46.574 10/08/2055]',20.708,33.211,-3.126,29.304,0.000,-9.377,27.350,31.258,31.258,0.000,53.529,-3.126,0.000,26.569,24.225,17.582,30.867,0.000,85.177,-33.211,27.741,20.708,0.000,3.126,1.563,2.735,-13.675,27.741
'[17:56:46.578 10/08/2055]',16.020,21.880,-14.066,42.198,0.000,-14.457,8.596,32.821,39.072,0.000,50.012,-7.814,0.000,55.873,3.907,5.861,25.788,0.000,-18.364,19.927,87.912,3.516,0.000,14.066,23.834,-53.138,-18.364,87.912
'[17:56:46.582 10/08/2055]',-32.039,20.317,46.496,42.979,0.000,15.238,43.370,-16.801,36.337,0.000,55.873,-9.377,0.000,54.701,12.112,5.079,30.085,0.000,-25.788,129.719,-12.894,13.675,0.000,-46.496,55.873,-27.741,71.111,-12.894
'[17:56:46.586 10/08/2055]',-1.172,-17.973,64.078,53.138,0.000,27.350,47.277,-18.755,41.807,0.000,54.310,-9.768,0.000,63.687,24.225,-15.629,29.695,0.000,-23.053,43.761,43.370,39.853,0.000,-64.078,103.150,-10.159,-49.231,43.370
'[17:56:46.590 10/08/2055]',25.006,-11.331,47.668,48.840,0.000,50.012,20.317,0.781,37.900,0.000,48.840,1.563,0.000,58.608,-2.344,29.695,23.053,0.000,-39.072,3.126,149.646,-2.344,0.000,-47.668,87.131,-30.476,-89.475,149.646
'[17:56:46.594 10/08/2055]',14.457,7.424,50.794,47.277,0.000,72.674,36.337,-20.708,31.648,0.000,50.403,2.344,0.000,78.144,29.304,15.238,17.582,0.000,12.894,-9.377,126.984,12.894,0.000,-50.794,40.635,16.801,-80.098,126.984
'[17:56:46.598 10/08/2055]',17.192,25.006,33.211,48.840,0.000,51.575,29.304,4.689,37.509,0.000,48.059,8.987,0.000,89.475,20.708,28.523,24.225,0.000,79.707,-19.927,92.991,12.112,0.000,-33.211,29.304,29.695,-54.701,92.991
'[17:56:46.602 10/08/2055]',35.556,65.641,3.907,48.059,0.000,68.376,30.867,16.801,37.509,0.000,46.496,24.225,0.000,96.508,15.629,60.171,36.337,0.000,95.336,19.536,86.349,8.596,0.000,-3.907,-3.126,9.768,-12.503,86.349
'[17:56:46.605 10/08/2055]',61.343,4.689,32.039,61.343,0.000,60.171,67.204,-12.894,44.542,0.000,47.668,27.741,0.000,70.720,46.496,45.324,55.092,0.000,189.890,-65.250,39.463,55.482,0.000,-32.039,12.894,22.271,-1.954,39.463
'[17:56:46.609 10/08/2055]',38.291,67.985,13.675,47.668,0.000,71.111,45.324,11.722,39.072,0.000,48.840,31.648,0.000,94.945,26.569,50.012,42.589,0.000,135.189,1.563,28.523,49.621,0.000,-13.675,8.987,28.132,-23.053,28.523
'[17:56:46.613 10/08/2055]',91.038,24.225,10.940,51.966,0.000,51.184,45.714,39.463,41.416,0.000,52.357,45.324,0.000,68.767,28.913,75.800,35.556,0.000,116.435,-12.112,75.018,30.476,0.000,-10.940,34.383,-16.410,-28.132,75.018
'[17:56:46.617 10/08/2055]',89.084,21.880,20.317,51.184,0.000,62.515,48.840,37.509,33.602,0.000,57.045,43.761,0.000,60.171,57.436,52.747,31.648,0.000,131.673,24.615,-13.284,62.515,0.000,-20.317,50.012,0.000,1.563,-13.284
'[17:56:46.621 10/08/2055]',101.197,27.741,20.708,40.635,0.000,53.138,66.032,50.794,20.708,0.000,60.171,44.933,0.000,137.924,38.681,46.496,14.066,0.000,67.985,107.839,34.774,27.741,0.000,-20.708,41.026,-17.192,8.987,34.774
'[17:56:46.625 10/08/2055]',78.535,37.118,22.662,57.436,0.000,78.926,43.370,47.668,25.788,0.000,56.654,50.012,0.000,173.871,8.987,60.952,30.476,0.000,39.853,168.791,33.602,33.211,0.000,-22.662,33.993,-32.821,55.873,33.602
'[17:56:46.629 10/08/2055]',78.926,36.728,46.496,55.092,0.000,138.315,50.012,14.457,14.847,0.000,58.999,48.449,0.000,180.904,30.476,55.092,28.132,0.000,85.177,69.158,100.806,41.416,0.000,-46.496,31.258,22.662,-51.966,100.806
'[17:56:46.633 10/08/2055]',70.720,56.264,50.794,49.231,0.000,151.600,55.482,11.331,8.596,0.000,66.422,52.357,0.000,191.844,41.416,59.389,19.145,0.000,82.051,74.237,126.984,29.304,0.000,-50.794,20.708,-3.516,-31.648,126.984
'[17:56:46.637 10/08/2055]',71.893,75.018,37.118,53.529,0.000,164.493,40.635,19.927,12.894,0.000,78.144,53.529,0.000,193.407,65.250,58.999,12.503,0.000,112.137,44.933,156.288,17.973,0.000,-37.118,6.252,-21.880,-30.085,156.288
'[17:56:46.641 10/08/2055]',116.825,52.747,55.873,48.449,0.000,172.308,76.581,15.238,9.768,0.000,87.912,55.092,0.000,183.639,90.647,58.608,15.629,0.000,180.122,96.899,50.403,23.443,0.000,-55.873,26.960,-41.807,78.144,50.403
'[17:56:46.645 10/08/2055]',113.309,55.092,55.482,47.277,0.000,164.103,76.581,23.053,7.033,0.000,92.991,52.747,0.000,172.698,89.866,57.436,21.490,0.000,180.904,97.680,26.960,37.900,0.000,-55.482,25.006,-38.681,80.098,26.960
'[17:56:46.648 10/08/2055]',132.845,58.999,33.211,51.966,0.000,144.957,83.223,35.165,14.066,0.000,96.899,54.701,0.000,223.101,85.177,46.886,16.020,0.000,153.944,87.912,113.700,17.582,0.000,-33.211,14.457,-64.860,36.337,113.700
'[17:56:46.652 10/08/2055]',151.600,55.873,20.317,53.138,0.000,146.520,78.926,42.198,13.284,0.000,99.634,57.827,0.000,219.976,75.800,58.999,16.801,0.000,141.441,78.926,126.203,25.788,0.000,-20.317,0.000,-36.337,-7.814,126.203
'[17:56:46.656 10/08/2055]',143.004,60.562,33.602,43.761,0.000,159.023,76.972,41.416,4.298,0.000,98.071,63.297,0.000,209.426,78.144,75.800,7.424,0.000,148.864,32.430,173.089,16.801,0.000,-33.602,16.801,17.973,-113.309,173.089
'[17:56:46.660 10/08/2055]',146.911,91.819,9.768,48.059,0.000,193.407,65.250,31.648,7.424,0.000,103.932,62.515,0.000,233.651,84.005,63.687,1.172,0.000,140.269,74.237,146.129,22.662,0.000,-9.768,-12.503,-16.020,-50.794,146.129
'[17:56:46.664 10/08/2055]',183.248,55.092,26.569,36.337,0.000,187.155,88.303,33.602,-6.252,0.000,109.402,62.906,0.000,218.413,93.773,73.455,-3.907,0.000,185.592,77.363,98.462,20.317,0.000,-26.569,13.675,-37.900,-0.781,98.462
'[17:56:46.668 10/08/2055]',164.103,55.092,45.324,41.416,0.000,185.983,107.057,16.410,-2.344,0.000,106.276,63.297,0.000,212.161,80.488,78.926,6.252,0.000,207.473,74.237,76.581,19.927,0.000,-45.324,37.509,-38.681,22.271,76.581
'[17:56:46.672 10/08/2055]',168.791,44.933,48.840,33.993,0.000,184.420,114.872,4.298,-5.079,0.000,106.667,58.608,0.000,217.631,78.926,62.906,17.973,0.000,170.745,143.785,21.490,42.979,0.000,-48.840,42.198,-66.813,68.767,21.490
'[17:56:46.676 10/08/2055]',199.267,45.324,12.112,28.132,0.000,141.441,112.918,37.509,-5.079,0.000,98.852,57.827,0.000,240.684,49.621,57.045,19.145,0.000,144.567,181.294,8.987,33.211,0.000,-12.112,29.304,-78.926,75.409,8.987
'[17:56:46.680 10/08/2055]',215.678,21.099,2.344,43.370,0.000,154.335,75.018,42.979,10.159,0.000,88.303,58.608,0.000,232.088,46.496,50.794,34.774,0.000,201.221,69.939,57.436,37.118,0.000,-2.344,27.350,-28.913,-17.973,57.436
'[17:56:46.684 10/08/2055]',190.281,45.324,21.880,35.946,0.000,189.499,91.819,13.284,-0.391,0.000,88.303,53.919,0.000,261.392,59.780,40.635,29.304,0.000,172.698,136.361,53.529,29.695,0.000,-21.880,29.304,-44.542,17.973,53.529
'[17:56:46.688 10/08/2055]',243.028,28.523,-22.662,44.542,0.000,178.950,67.985,32.821,12.112,0.000,85.177,53.919,0.000,249.670,58.217,42.589,34.383,0.000,191.062,87.131,79.707,28.523,0.000,22.662,1.954,-60.562,0.781,79.707
'[17:56:46.691 10/08/2055]',214.505,6.642,21.490,49.231,0.000,174.652,81.661,21.880,13.284,0.000,76.581,53.919,0.000,241.856,71.893,29.304,37.118,0.000,187.155,75.409,89.084,28.913,0.000,-21.490,39.853,-65.250,5.470,89.084
'[17:56:46.695 10/08/2055]',203.175,14.847,44.151,42.589,0.000,179.731,102.759,7.033,15.238,0.000,72.283,62.515,0.000,227.790,48.059,71.502,46.105,0.000,207.863,81.270,91.038,15.238,0.000,-44.151,59.389,-85.568,31.258,91.038
'[17:56:46.699 10/08/2055]',184.811,66.813,8.987,38.681,0.000,190.672,73.455,19.145,14.847,0.000,65.641,57.436,0.000,257.094,56.264,36.728,35.556,0.000,110.183,181.294,75.800,19.536,0.000,-8.987,-3.516,-50.403,28.913,75.800
'[17:56:46.703 10/08/2055]',183.639,47.668,17.192,38.681,0.000,175.824,48.059,47.277,16.020,0.000,60.171,61.343,0.000,236.386,35.946,45.714,38.291,0.000,187.546,137.143,-3.516,36.337,0.000,-17.192,31.648,-61.734,73.455,-3.516
'[17:56:46.707 10/08/2055]',184.811,35.165,17.582,39.853,0.000,166.838,46.105,47.668,16.410,0.000,57.436,67.985,0.000,223.101,21.490,74.628,42.198,0.000,221.148,71.502,24.615,45.324,0.000,-17.582,35.946,-51.966,23.053,24.615
'[17:56:46.711 10/08/2055]',163.321,39.463,16.020,46.105,0.000,190.281,25.788,35.556,12.503,0.000,60.952,62.906,0.000,237.558,50.794,58.608,18.755,0.000,159.805,90.256,79.707,36.337,0.000,-16.020,28.523,-45.714,-12.112,79.707
'[17:56:46.715 10/08/2055]',180.122,-13.675,29.695,45.714,0.000,143.004,41.807,43.761,11.722,0.000,56.264,65.250,0.000,207.082,46.496,49.231,25.397,0.000,224.664,-15.629,51.966,69.548,0.000,-29.695,64.078,-36.728,-50.012,51.966
'[17:56:46.719 10/08/2055]',182.076,-36.728,36.728,59.389,0.000,134.017,53.529,31.648,20.317,0.000,53.529,71.502,0.000,205.128,46.886,60.562,27.741,0.000,187.937,19.145,80.098,53.919,0.000,-36.728,58.608,-57.827,-15.238,80.098
'[17:56:46.723 10/08/2055]',139.096,-8.205,32.039,67.985,0.000,142.613,43.761,13.675,29.304,0.000,48.840,72.674,0.000,194.188,44.151,71.111,30.476,0.000,139.096,38.681,119.560,44.151,0.000,-32.039,24.615,-24.615,-35.556,119.560
'[17:56:46.727 10/08/2055]',131.673,-19.536,10.549,75.409,0.000,111.746,23.834,24.615,36.728,0.000,43.761,70.330,0.000,154.725,63.297,44.542,36.728,0.000,142.222,6.252,81.270,70.330,0.000,-10.549,25.006,-24.615,-33.993,81.270
'[17:56:46.730 10/08/2055]',116.044,-13.675,-0.781,80.098,0.000,98.071,22.271,22.271,37.509,0.000,40.635,69.158,0.000,144.176,36.728,58.608,41.807,0.000,130.110,35.556,44.933,71.893,0.000,0.781,10.940,-35.556,20.317,44.933
'[17:56:46.734 10/08/2055]',101.978,-26.178,-8.596,83.614,0.000,79.707,-4.298,34.383,39.853,0.000,34.383,65.250,0.000,134.017,42.198,56.654,32.039,0.000,78.926,18.755,132.454,36.728,0.000,8.596,5.861,-30.476,-28.523,132.454
'[17:56:46.738 10/08/2055]',83.614,-66.813,20.317,84.786,0.000,62.515,0.000,21.490,36.337,0.000,28.132,58.999,0.000,122.295,41.807,36.337,34.383,0.000,75.800,16.020,94.164,50.403,0.000,-20.317,38.681,-26.569,-10.159,94.164
'[17:56:46.742 10/08/2055]',78.926,-95.336,27.741,97.680,0.000,24.225,17.582,16.020,50.403,0.000,12.112,59.780,0.000,100.806,-8.205,47.668,56.654,0.000,91.038,72.283,-46.105,81.661,0.000,-27.741,46.496,-13.284,83.614,-46.105
'[17:56:46.746 10/08/2055]',7.814,-69.158,43.761,102.369,0.000,33.211,-11.722,6.642,55.873,0.000,-0.781,50.403,0.000,84.005,7.814,25.006,45.324,0.000,24.615,118.779,-58.608,78.535,0.000,-43.761,30.085,-1.954,109.402,-58.608
'[17:56:46.750 10/08/2055]',-24.225,-75.409,38.291,103.150,0.000,17.582,-26.569,-7.424,57.436,0.000,-13.675,43.370,0.000,60.562,-0.391,24.615,33.602,0.000,-4.689,44.151,14.457,65.641,0.000,-38.291,25.397,-14.066,58.608,14.457
'[17:56:46.754 10/08/2055]',-40.635,-67.204,13.284,90.256,0.000,-14.457,-31.258,-6.642,48.840,0.000,-19.145,35.556,0.000,21.099,1.563,20.708,15.238,0.000,-10.549,-25.397,29.304,67.595,0.000,-13.284,13.284,-8.205,9.768,29.304
'[17:56:46.758 10/08/2055]',-62.125,-66.813,-1.172,67.204,0.000,-30.085,-51.184,-3.126,21.490,0.000,-25.006,19.927,0.000,28.913,4.689,11.331,-29.304,0.000,-111.355,-7.814,143.004,-5.861,0.000,1.172,0.781,-28.132,-21.099,143.004
'[17:56:46.762 10/08/2055]',-51.966,-94.554,-5.470,55.873,0.000,-58.999,-57.045,4.298,14.847,0.000,-25.788,14.457,0.000,8.205,10.940,5.079,-38.681,0.000,-118.388,-52.357,186.764,-28.132,0.000,5.470,9.377,-45.324,-48.059,186.764
'[17:56:46.766 10/08/2055]',-49.231,-130.501,-0.781,56.654,0.000,-81.661,-42.198,-14.847,14.847,0.000,-27.350,4.689,0.000,-12.894,0.781,-3.516,-36.337,0.000,-108.620,-46.496,123.468,-19.145,0.000,0.781,22.662,-26.178,-30.476,123.468
'[17:56:46.770 10/08/2055]',-98.462,-112.137,3.126,49.621,0.000,-75.409,-61.734,-26.569,6.252,0.000,-33.211,-4.298,0.000,-48.449,-18.755,-1.563,-31.258,0.000,-121.514,2.344,26.178,-7.814,0.000,-3.126,21.099,-2.735,32.039,26.178
'[17:56:46.773 10/08/2055]',-112.137,-118.388,6.252,48.059,0.000,-91.819,-64.860,-27.741,9.377,0.000,-41.026,-5.861,0.000,-64.078,-22.271,-3.516,-23.053,0.000,-117.998,-13.675,21.099,-2.344,0.000,-6.252,20.708,-4.298,34.383,21.099
'[17:56:46.777 10/08/2055]',-124.249,-114.872,1.954,50.012,0.000,-105.495,-66.032,-26.960,12.894,0.000,-45.324,-5.861,0.000,-90.256,-22.271,2.344,-25.006,0.000,-110.574,-61.734,41.416,-4.298,0.000,-1.954,6.252,-5.079,27.350,41.416
'[17:56:46.781 10/08/2055]',-136.752,-112.527,-3.907,36.337,0.000,-122.686,-69.939,-23.834,0.391,0.000,-49.231,-2.344,0.000,-138.706,-31.258,26.960,-27.350,0.000,-120.733,-59.780,20.317,-8.987,0.000,3.907,5.861,5.079,37.509,20.317
'[17:56:46.785 10/08/2055]',-134.017,-115.653,6.252,31.258,0.000,-140.659,-61.734,-6.642,-0.781,0.000,-46.496,-3.126,0.000,-113.700,-10.940,9.768,-38.291,0.000,-185.201,-17.582,84.786,-35.165,0.000,-6.252,2.344,-39.463,54.310,84.786
'[17:56:46.789 10/08/2055]',-135.189,-116.435,13.675,40.244,0.000,-152.772,-55.482,-0.391,11.722,0.000,-43.370,-0.781,0.000,-126.593,-3.516,4.298,-32.039,0.000,-187.546,-58.217,118.779,-30.085,0.000,-13.675,-11.722,-26.178,16.801,118.779
'[17:56:46.793 10/08/2055]',-155.116,-130.501,39.853,42.589,0.000,-161.368,-49.231,-6.252,13.675,0.000,-38.291,1.563,0.000,-134.799,-2.344,7.814,-29.304,0.000,-205.910,-36.728,108.620,-24.615,0.000,-39.853,0.781,0.000,7.814,108.620
'[17:56:46.797 10/08/2055]',-168.010,-123.858,48.840,42.589,0.000,-172.308,-41.807,0.000,14.457,0.000,-33.602,5.861,0.000,-130.110,-5.861,10.549,-19.536,0.000,-208.645,-28.523,110.965,-18.364,0.000,-48.840,0.781,-5.079,16.020,110.965
'[17:56:46.801 10/08/2055]',-163.321,-125.031,42.589,46.886,0.000,-180.513,-34.383,2.344,13.284,0.000,-33.211,12.503,0.000,-146.911,-1.563,15.238,-9.377,0.000,-195.751,-44.542,107.057,-8.205,0.000,-42.589,-6.252,5.861,8.987,107.057
'[17:56:46.805 10/08/2055]',-169.573,-109.402,25.397,38.291,0.000,-185.201,-32.821,0.000,3.126,0.000,-32.821,20.708,0.000,-168.791,-12.894,28.523,-3.907,0.000,-191.453,-48.059,92.210,-8.205,0.000,-25.397,-15.238,27.741,-1.172,92.210
'[17:56:46.809 10/08/2055]',-175.824,-102.759,19.145,30.476,0.000,-194.969,-35.946,5.861,-2.735,0.000,-33.993,29.304,0.000,-179.731,-14.847,41.026,7.033,0.000,-183.248,-56.654,101.197,-5.470,0.000,-19.145,-14.457,-3.516,18.755,101.197
'[17:56:46.813 10/08/2055]',-175.824,-103.541,33.602,42.589,0.000,-190.672,-40.635,13.284,15.629,0.000,-38.291,37.118,0.000,-182.466,-26.569,49.231,21.880,0.000,-195.751,-53.529,115.263,-1.954,0.000,-33.602,-17.192,11.331,4.689,115.263
'[17:56:46.816 10/08/2055]',-181.294,-103.932,50.012,51.966,0.000,-189.890,-39.853,16.801,29.695,0.000,-41.026,43.370,0.000,-180.904,-21.880,42.589,37.118,0.000,-207.863,-43.370,116.825,12.503,0.000,-50.012,-16.801,12.894,8.987,116.825
'[17:56:46.820 10/08/2055]',-185.201,-114.090,71.893,56.264,0.000,-196.142,-39.072,23.443,40.244,0.000,-43.370,50.403,0.000,-186.764,-31.258,53.529,62.906,0.000,-193.797,-51.575,112.918,31.258,0.000,-71.893,-9.377,10.159,24.225,112.918
'[17:56:46.824 10/08/2055]',-186.374,-116.825,78.144,70.330,0.000,-205.910,-33.993,27.741,56.654,0.000,-48.449,54.310,0.000,-179.731,-32.821,47.277,74.628,0.000,-216.459,-1.172,87.521,39.072,0.000,-78.144,-9.768,18.364,45.714,87.521
'[17:56:46.828 10/08/2055]',-192.625,-104.713,58.608,68.767,0.000,-216.068,-32.821,26.960,51.184,0.000,-54.310,56.654,0.000,-189.499,-33.602,41.416,84.396,0.000,-225.055,-17.582,94.945,50.012,0.000,-58.608,-18.364,21.099,23.053,94.945
'[17:56:46.832 10/08/2055]',-198.486,-103.932,52.357,63.297,0.000,-224.274,-36.337,25.006,48.059,0.000,-53.529,58.608,0.000,-189.109,-35.556,50.403,84.786,0.000,-202.784,-35.556,103.150,45.714,0.000,-52.357,-16.410,28.132,5.470,103.150
'[17:56:46.836 10/08/2055]',-202.002,-103.150,32.039,57.436,0.000,-228.181,-44.151,20.708,35.946,0.000,-53.919,57.045,0.000,-190.281,-30.476,58.999,67.595,0.000,-203.175,-69.548,166.447,12.894,0.000,-32.039,-9.377,9.768,-23.834,166.447
'[17:56:46.840 10/08/2055]',-191.453,-97.680,46.886,41.026,0.000,-206.691,-40.244,16.801,28.523,0.000,-53.919,51.575,0.000,-190.672,-25.006,61.343,67.595,0.000,-198.877,-76.972,180.513,9.377,0.000,-46.886,-10.549,11.331,-30.867,180.513
'[17:56:46.844 10/08/2055]',-179.731,-98.071,46.886,48.449,0.000,-197.314,-41.026,15.238,41.026,0.000,-50.012,42.979,0.000,-193.407,-20.317,55.482,76.190,0.000,-189.109,-89.866,181.294,15.629,0.000,-46.886,-5.861,10.159,-37.118,181.294
'[17:56:46.848 10/08/2055]',-175.824,-92.991,41.026,26.569,0.000,-196.532,-43.761,12.112,26.569,0.000,-51.184,30.476,0.000,-198.095,-23.443,47.277,71.893,0.000,-182.466,-86.740,158.242,8.596,0.000,-41.026,-7.814,5.861,-24.225,158.242
'[17:56:46.852 10/08/2055]',-170.354,-86.349,52.357,30.085,0.000,-192.625,-40.635,14.847,44.542,0.000,-52.357,21.099,0.000,-197.705,-23.053,29.304,78.144,0.000,-184.420,-74.628,121.514,24.225,0.000,-52.357,-14.847,14.847,-19.536,121.514
'[17:56:46.855 10/08/2055]',-175.824,-82.442,44.542,25.006,0.000,-203.175,-42.198,13.284,42.979,0.000,-54.310,10.940,0.000,-201.612,-25.397,17.973,76.190,0.000,-177.778,-80.488,96.117,29.695,0.000,-44.542,-17.582,34.774,-38.681,96.117
'[17:56:46.859 10/08/2055]',-175.433,-78.535,22.271,19.145,0.000,-204.737,-47.277,7.033,32.821,0.000,-52.747,3.126,0.000,-202.393,-28.132,13.675,65.250,0.000,-166.447,-92.601,88.694,18.364,0.000,-22.271,-21.099,33.211,-40.635,88.694
'[17:56:46.863 10/08/2055]',-173.089,-85.177,40.244,6.642,0.000,-197.705,-41.026,1.172,26.178,0.000,-53.138,-3.126,0.000,-193.407,-25.006,5.861,53.919,0.000,-160.586,-101.587,91.819,12.112,0.000,-40.244,-10.549,37.509,-51.575,91.819
'[17:56:46.867 10/08/2055]',-170.354,-79.707,35.556,3.126,0.000,-186.374,-42.198,-5.861,23.443,0.000,-54.310,-10.549,0.000,-192.625,-26.569,0.000,48.449,0.000,-153.162,-102.369,75.409,8.596,0.000,-35.556,-5.861,46.886,-53.529,75.409
'[17:56:46.871 10/08/2055]',-162.149,-75.409,28.913,-2.735,0.000,-170.745,-47.277,-13.284,19.536,0.000,-51.966,-17.973,0.000,-192.625,-25.006,-6.252,45.714,0.000,-143.785,-105.495,63.687,6.642,0.000,-28.913,0.000,43.370,-51.184,63.687
'[17:56:46.875 10/08/2055]',-164.884,-74.628,36.337,-12.503,0.000,-169.963,-48.449,-16.410,18.755,0.000,-53.529,-24.615,0.000,-187.546,-24.225,-14.066,40.635,0.000,-130.110,-114.481,57.045,1.563,0.000,-36.337,3.516,53.138,-57.436,57.045
'[17:56:46.879 10/08/2055]',-168.791,-67.204,36.337,-8.987,0.000,-169.573,-47.277,-16.410,24.615,0.000,-53.138,-30.085,0.000,-187.155,-23.443,-20.708,44.151,0.000,-130.110,-108.230,41.416,9.768,0.000,-36.337,0.000,61.343,-57.045,41.416
'[17:56:46.883 10/08/2055]',-169.963,-66.813,30.476,-18.755,0.000,-173.871,-46.886,-19.536,15.238,0.000,-49.231,-34.774,0.000,-181.685,-25.006,-20.317,34.383,0.000,-119.170,-117.998,40.244,2.735,0.000,-30.476,-0.391,63.687,-70.330,40.244
'[17:56:46.887 10/08/2055]',-168.400,-66.032,40.635,-24.615,0.000,-176.996,-39.072,-18.364,16.410,0.000,-42.979,-34.774,0.000,-176.606,-28.132,-21.490,39.463,0.000,-115.653,-122.686,36.728,13.675,0.000,-40.635,-2.735,54.310,-64.469,36.728
'[17:56:46.891 10/08/2055]',-152.381,-56.264,42.589,-25.397,0.000,-155.116,-34.383,-16.801,15.238,0.000,-41.026,-36.337,0.000,-170.354,-33.211,-22.271,34.383,0.000,-113.700,-126.203,28.913,17.582,0.000,-42.589,-7.814,56.264,-70.330,28.913
'[17:56:46.895 10/08/2055]',-141.832,-48.840,27.741,-22.662,0.000,-141.441,-33.993,-18.364,7.814,0.000,-38.681,-37.118,0.000,-160.977,-35.556,-19.927,26.569,0.000,-101.978,-129.328,26.960,12.894,0.000,-27.741,-9.768,58.999,-80.098,26.960
'[17:56:46.898 10/08/2055]',-132.063,-39.853,26.178,-23.443,0.000,-128.938,-31.258,-14.457,5.470,0.000,-32.821,-32.430,0.000,-157.070,-34.774,-15.238,27.350,0.000,-95.726,-129.719,31.648,12.894,0.000,-26.178,-13.675,55.482,-78.926,31.648
'[17:56:46.902 10/08/2055]',-126.593,-28.132,28.913,-19.536,0.000,-120.342,-24.225,-8.205,6.642,0.000,-27.350,-25.397,0.000,-155.116,-30.085,-7.424,26.178,0.000,-85.958,-128.938,41.026,7.033,0.000,-28.913,-21.099,60.952,-75.800,41.026
'[17:56:46.906 10/08/2055]',-132.845,-14.847,33.211,-14.847,0.000,-128.938,-16.020,0.000,14.847,0.000,-22.662,-16.801,0.000,-156.288,-23.443,1.954,34.774,0.000,-80.098,-124.249,44.933,16.410,0.000,-33.211,-32.821,72.674,-80.879,44.933
'[17:56:46.910 10/08/2055]',-133.236,-15.238,55.873,-13.675,0.000,-130.891,-7.424,6.252,24.225,0.000,-13.675,-8.205,0.000,-148.083,-17.192,12.503,43.370,0.000,-71.502,-116.435,53.919,24.225,0.000,-55.873,-29.304,73.065,-75.018,53.919
'[17:56:46.914 10/08/2055]',-121.123,-24.615,69.939,-8.596,0.000,-115.653,-0.391,7.814,21.880,0.000,-7.033,-1.563,0.000,-138.315,-15.629,18.364,37.900,0.000,-52.747,-124.249,51.575,27.741,0.000,-69.939,-20.317,85.958,-75.409,51.575
'[17:56:46.918 10/08/2055]',-117.216,-33.602,67.204,-2.344,0.000,-110.183,1.954,5.861,14.066,0.000,-4.298,2.735,0.000,-122.686,-15.629,24.615,25.006,0.000,-48.059,-117.216,51.184,25.006,0.000,-67.204,-11.331,86.740,-74.628,51.184
'[17:56:46.922 10/08/2055]',-112.137,-37.509,53.138,-3.907,0.000,-98.462,0.000,1.172,-3.907,0.000,-3.126,6.642,0.000,-121.123,-14.847,31.648,1.954,0.000,-44.933,-122.686,55.873,8.205,0.000,-53.138,-4.298,93.382,-83.614,55.873
'[17:56:46.926 10/08/2055]',-103.150,-38.681,46.886,-10.549,0.000,-84.786,-1.563,1.563,-21.880,0.000,0.000,13.675,0.000,-121.123,-10.549,40.244,-18.364,0.000,-38.681,-125.031,59.389,-5.470,0.000,-46.886,-5.470,100.415,-81.661,59.389
'[17:56:46.930 10/08/2055]',-102.369,-26.569,57.436,-8.596,0.000,-81.661,1.954,9.768,-12.112,0.000,2.344,25.788,0.000,-134.408,-3.907,50.012,-17.973,0.000,-46.886,-120.733,60.171,0.000,0.000,-57.436,-17.192,100.415,-72.283,60.171
'[17:56:46.934 10/08/2055]',-107.839,-21.099,49.621,-3.907,0.000,-84.396,1.563,10.549,-12.112,0.000,2.344,33.211,0.000,-134.408,3.516,56.654,-20.708,0.000,-39.853,-119.560,66.813,-1.954,0.000,-49.621,-21.490,109.011,-77.753,66.813
'[17:56:46.938 10/08/2055]',-105.495,-24.225,62.515,-3.126,0.000,-79.707,8.596,11.722,-12.894,0.000,11.331,37.900,0.000,-118.779,5.861,60.562,-22.662,0.000,-26.960,-116.435,67.595,0.391,0.000,-62.515,-18.364,112.918,-74.628,67.595
'[17:56:46.941 10/08/2055]',-105.495,-26.178,51.966,15.238,0.000,-80.879,12.894,9.768,-7.814,0.000,12.112,42.589,0.000,-107.839,0.391,61.734,-24.615,0.000,-22.662,-111.355,56.654,5.861,0.000,-51.966,-13.675,112.918,-69.548,56.654
'[17:56:46.945 10/08/2055]',-107.057,-26.960,35.946,10.549,0.000,-81.270,12.112,5.861,-25.006,0.000,8.596,40.635,0.000,-102.369,-3.126,58.999,-39.853,0.000,-23.053,-112.137,58.608,-9.768,0.000,-35.946,-9.377,121.123,-80.879,58.608
'[17:56:46.949 10/08/2055]',-109.402,-24.615,27.741,9.377,0.000,-78.144,10.159,3.907,-33.602,0.000,7.814,37.509,0.000,-99.243,-8.987,54.701,-46.496,0.000,-26.178,-114.090,54.701,-14.457,0.000,-27.741,-6.642,123.858,-83.614,54.701
'[17:56:46.953 10/08/2055]',-116.435,-20.317,17.192,12.894,0.000,-84.005,7.814,1.563,-32.430,0.000,2.735,35.556,0.000,-96.899,-14.066,48.840,-49.621,0.000,-25.397,-112.918,41.807,-16.020,0.000,-17.192,-9.768,122.686,-78.144,41.807
'[17:56:46.957 10/08/2055]',-120.342,-17.973,18.755,7.424,0.000,-86.349,3.126,3.126,-33.211,0.000,-5.079,32.039,0.000,-99.243,-16.020,44.933,-50.012,0.000,-26.178,-115.653,42.198,-20.708,0.000,-18.755,-11.722,125.812,-83.223,42.198
'[17:56:46.961 10/08/2055]',-134.017,-18.364,30.867,3.907,0.000,-97.289,6.252,5.861,-32.430,0.000,-7.033,29.695,0.000,-100.024,-16.801,45.324,-44.933,0.000,-22.662,-116.044,42.198,-20.317,0.000,-30.867,-13.284,128.938,-82.833,42.198
'[17:56:46.965 10/08/2055]',-135.189,-23.053,35.165,19.927,0.000,-98.462,7.814,3.126,-15.629,0.000,-5.079,28.523,0.000,-97.680,-18.755,41.416,-33.211,0.000,-17.192,-116.825,33.602,-7.814,0.000,-35.165,-9.377,123.858,-79.316,33.602
'[17:56:46.969 10/08/2055]',-123.858,-22.662,26.178,15.629,0.000,-86.740,2.344,-1.563,-17.582,0.000,-8.205,22.271,0.000,-108.620,-23.053,37.118,-45.714,0.000,-21.880,-125.421,27.350,-20.708,0.000,-26.178,-9.377,116.825,-82.442,27.350
'[17:56:46.973 10/08/2055]',-112.918,-20.708,20.317,17.582,0.000,-72.283,1.172,-5.470,-17.973,0.000,-13.284,20.708,0.000,-112.137,-20.708,37.509,-29.304,0.000,-23.053,-125.421,43.761,-19.927,0.000,-20.317,-14.066,128.547,-86.740,43.761
'[17:56:46.977 10/08/2055]',-114.481,-26.178,6.252,22.662,0.000,-74.237,-4.298,-14.066,-16.410,0.000,-17.973,12.894,0.000,-101.587,-30.085,28.132,-26.960,0.000,-23.443,-120.342,33.993,-20.317,0.000,-6.252,-8.205,124.640,-85.568,33.993
'[17:56:46.980 10/08/2055]',-115.653,-16.020,-16.410,13.675,0.000,-77.363,-11.722,-18.755,-25.006,0.000,-23.443,3.516,0.000,-95.336,-37.509,19.927,-42.198,0.000,-17.582,-123.468,23.443,-37.900,0.000,16.410,-17.192,127.766,-89.866,23.443
'[17:56:46.984 10/08/2055]',-119.560,-18.364,1.954,-5.079,0.000,-81.661,-12.112,-13.284,-33.602,0.000,-26.569,-0.391,0.000,-87.912,-37.509,16.801,-47.277,0.000,-10.159,-115.653,20.317,-49.621,0.000,-1.954,-14.457,130.891,-87.131,20.317
'[17:56:46.988 10/08/2055]',-125.812,-28.132,17.582,-4.689,0.000,-88.694,-12.503,-13.675,-25.006,0.000,-26.178,-8.205,0.000,-83.223,-42.198,8.205,-46.886,0.000,-6.642,-103.932,-5.470,-46.886,0.000,-17.582,-4.298,134.799,-82.442,-5.470
'[17:56:46.992 10/08/2055]',-121.514,-23.834,14.066,-3.126,0.000,-83.614,-16.801,-14.066,-19.145,0.000,-24.615,-16.410,0.000,-85.568,-43.370,1.563,-51.966,0.000,-3.907,-105.885,-13.675,-55.873,0.000,-14.066,-4.298,133.626,-82.833,-13.675
'[17:56:46.996 10/08/2055]',-103.150,-19.145,28.132,-6.252,0.000,-56.654,-16.801,-14.847,-10.940,0.000,-26.178,-19.927,0.000,-91.429,-40.635,-1.954,-32.039,0.000,-5.861,-105.495,-13.675,-40.244,0.000,-28.132,-9.377,141.832,-83.614,-13.675
'[17:56:47.000 10/08/2055]',-99.243,-18.755,12.894,1.563,0.000,-47.277,-18.755,-25.006,-10.159,0.000,-29.695,-26.569,0.000,-89.866,-46.105,-7.033,-10.159,0.000,-4.298,-109.011,-14.847,-25.006,0.000,-12.894,-8.205,149.646,-89.475,-14.847
'[17:56:47.004 10/08/2055]',-99.634,-10.940,-8.596,-6.642,0.000,-49.231,-21.490,-30.867,-23.443,0.000,-28.523,-37.509,0.000,-102.369,-47.277,-14.066,-12.112,0.000,-8.987,-116.435,-23.443,-26.960,0.000,8.596,-11.331,143.394,-93.773,-23.443
'[17:56:47.008 10/08/2055]',-94.554,-9.377,8.987,-11.722,0.000,-46.496,-14.847,-27.741,-16.020,0.000,-29.304,-40.635,0.000,-92.601,-49.231,-16.410,-10.940,0.000,6.252,-123.077,-32.039,-21.099,0.000,-8.987,-10.940,137.924,-98.852,-32.039
'[17:56:47.012 10/08/2055]',-94.164,-15.629,10.159,-9.768,0.000,-50.403,-9.768,-27.350,-20.317,0.000,-29.695,-41.026,0.000,-91.429,-50.012,-12.503,-6.252,0.000,6.642,-123.468,-19.536,-24.615,0.000,-10.159,-4.298,134.017,-103.150,-19.536
'[17:56:47.016 10/08/2055]',-91.429,-8.596,26.569,-10.940,0.000,-46.496,-8.205,-21.099,-7.424,0.000,-26.960,-37.900,0.000,-92.991,-51.575,-11.722,8.205,0.000,2.735,-121.123,-19.145,-10.159,0.000,-26.569,-7.814,121.905,-99.634,-19.145
'[17:56:47.020 10/08/2055]',-80.879,-7.033,28.913,-5.470,0.000,-35.165,-8.205,-17.582,-2.344,0.000,-25.397,-35.946,0.000,-92.601,-56.264,-11.722,10.940,0.000,-3.516,-120.733,-21.099,-3.907,0.000,-28.913,-3.516,110.183,-98.852,-21.099
'[17:56:47.023 10/08/2055]',-79.707,-3.126,26.569,-14.847,0.000,-29.304,-8.596,-17.582,-12.894,0.000,-26.178,-35.556,0.000,-89.866,-58.999,-9.768,4.689,0.000,-5.861,-119.951,-20.708,-6.252,0.000,-26.569,-7.814,113.700,-100.415,-20.708
'[17:56:47.027 10/08/2055]',-83.614,6.642,14.847,-18.755,0.000,-30.867,-10.940,-16.801,-19.145,0.000,-21.490,-38.681,0.000,-85.177,-57.436,-9.377,9.768,0.000,-2.344,-118.779,-23.443,2.735,0.000,-14.847,-15.238,112.137,-102.369,-23.443
'[17:56:47.031 10/08/2055]',-79.316,10.159,5.861,-21.490,0.000,-27.741,-9.768,-16.020,-28.132,0.000,-15.629,-42.979,0.000,-76.581,-51.575,-8.205,1.563,0.000,7.424,-113.700,-31.258,1.563,0.000,-5.861,-17.192,109.402,-95.336,-31.258
'[17:56:47.035 10/08/2055]',-72.674,12.112,15.238,-25.788,0.000,-21.490,-4.298,-13.284,-28.913,0.000,-11.722,-41.416,0.000,-65.250,-46.105,-6.252,-5.079,0.000,16.410,-114.872,-29.304,2.735,0.000,-15.238,-19.536,105.885,-95.726,-29.304
'[17:56:47.039 10/08/2055]',-57.827,16.410,7.033,-16.020,0.000,-8.596,-1.954,-9.768,-26.178,0.000,-10.159,-40.635,0.000,-60.952,-37.900,-3.516,-3.126,0.000,21.490,-112.527,-23.053,5.861,0.000,-7.033,-22.662,109.402,-101.197,-23.053
